File Name:	C:\Rodrigo Simetti\2016 - 06 Termo Tulio\Eucalyptus DTG-60H 2016-05-28 15-50.tad

[File Information]
File Name:	Eucalyptus DTG-60H 2016-05-28 15-50.tad
Sample Name:	Eucalyptus 02
Acquisition Date	16/05/28
Acquisition Time	15:51:28(-0300)
Detector:	DTG-60H
Serial No:	C30574700307
Operator:	Rodrigo Simetti
Atmosphere:	Nitrogen
Flow Rate:	50[ml/min]
Annotation:	Trabalho 2016
	Eucalyptus 
Cell:	Alumina
Sample Weight:	4.246[mg]
Molecular Weight:	0.00


[Program]
[Sampling Parameters]
Sampling Time [ sec ]:	1.0
Start Acquisition Setting:	Acquisition measurement simultaneously
Stop Acquisition Setting:	Acquisition measurement simultaneously


[Temp Program]
Temp Rate	Hold Temp	Hold Time	Gas
[C/min ]	[  C   ]	[  min  ]
10.00	600.0	0	1


[Data]
Time	Temp	DTA	TGA
sec	C	uV	mg
0.000	39.879	-6.750	4.246
1.000	39.923	-6.792	4.245
2.000	40.148	-6.832	4.243
3.000	40.088	-6.871	4.242
4.000	40.239	-6.910	4.241
5.000	40.227	-6.949	4.239
6.000	40.433	-6.987	4.238
7.000	40.402	-7.022	4.236
8.000	40.528	-7.059	4.235
9.000	40.585	-7.093	4.233
10.000	40.766	-7.128	4.232
11.000	40.742	-7.158	4.230
12.000	40.777	-7.191	4.229
13.000	40.909	-7.221	4.227
14.000	40.982	-7.253	4.226
15.000	41.113	-7.280	4.224
16.000	41.041	-7.309	4.223
17.000	41.267	-7.335	4.221
18.000	41.185	-7.362	4.219
19.000	41.384	-7.387	4.218
20.000	41.282	-7.411	4.216
21.000	41.473	-7.436	4.214
22.000	41.473	-7.459	4.213
23.000	41.607	-7.481	4.211
24.000	41.590	-7.499	4.209
25.000	41.705	-7.522	4.208
26.000	41.748	-7.541	4.206
27.000	41.813	-7.562	4.204
28.000	41.835	-7.578	4.203
29.000	41.860	-7.597	4.201
30.000	42.014	-7.613	4.199
31.000	41.971	-7.631	4.198
32.000	42.141	-7.644	4.196
33.000	42.018	-7.658	4.195
34.000	42.187	-7.672	4.193
35.000	42.150	-7.683	4.192
36.000	42.291	-7.694	4.190
37.000	42.224	-7.705	4.188
38.000	42.395	-7.715	4.187
39.000	42.435	-7.723	4.185
40.000	42.458	-7.731	4.184
41.000	42.456	-7.736	4.182
42.000	42.490	-7.743	4.181
43.000	42.627	-7.747	4.179
44.000	42.580	-7.751	4.178
45.000	42.684	-7.753	4.176
46.000	42.659	-7.756	4.174
47.000	42.820	-7.758	4.173
48.000	42.719	-7.757	4.171
49.000	42.832	-7.755	4.169
50.000	42.812	-7.755	4.168
51.000	42.971	-7.754	4.166
52.000	42.964	-7.750	4.165
53.000	43.014	-7.748	4.163
54.000	42.996	-7.745	4.162
55.000	43.048	-7.743	4.160
56.000	43.109	-7.738	4.158
57.000	43.065	-7.734	4.157
58.000	43.177	-7.728	4.155
59.000	43.132	-7.723	4.154
60.000	43.356	-7.715	4.152
61.000	43.206	-7.706	4.151
62.000	43.351	-7.697	4.149
63.000	43.288	-7.687	4.148
64.000	43.481	-7.678	4.146
65.000	43.393	-7.664	4.145
66.000	43.475	-7.653	4.143
67.000	43.507	-7.639	4.142
68.000	43.581	-7.629	4.140
69.000	43.567	-7.614	4.139
70.000	43.533	-7.602	4.138
71.000	43.619	-7.588	4.136
72.000	43.631	-7.576	4.135
73.000	43.748	-7.559	4.134
74.000	43.641	-7.545	4.132
75.000	43.884	-7.529	4.131
76.000	43.767	-7.514	4.129
77.000	43.925	-7.497	4.128
78.000	43.792	-7.479	4.127
79.000	43.929	-7.465	4.125
80.000	43.917	-7.447	4.124
81.000	44.036	-7.431	4.123
82.000	44.030	-7.412	4.121
83.000	44.012	-7.395	4.120
84.000	44.095	-7.377	4.119
85.000	44.103	-7.360	4.117
86.000	44.193	-7.339	4.116
87.000	44.159	-7.321	4.115
88.000	44.354	-7.303	4.114
89.000	44.312	-7.282	4.112
90.000	44.385	-7.263	4.111
91.000	44.285	-7.244	4.110
92.000	44.474	-7.224	4.109
93.000	44.464	-7.204	4.107
94.000	44.557	-7.185	4.106
95.000	44.495	-7.165	4.105
96.000	44.603	-7.148	4.103
97.000	44.679	-7.129	4.102
98.000	44.663	-7.111	4.101
99.000	44.743	-7.093	4.099
100.000	44.754	-7.077	4.098
101.000	44.931	-7.060	4.097
102.000	44.863	-7.042	4.096
103.000	45.011	-7.027	4.095
104.000	44.940	-7.010	4.093
105.000	45.120	-6.995	4.092
106.000	45.073	-6.979	4.091
107.000	45.192	-6.963	4.090
108.000	45.205	-6.948	4.089
109.000	45.340	-6.934	4.088
110.000	45.428	-6.917	4.087
111.000	45.392	-6.904	4.086
112.000	45.521	-6.890	4.084
113.000	45.540	-6.878	4.083
114.000	45.733	-6.863	4.082
115.000	45.652	-6.851	4.081
116.000	45.851	-6.840	4.080
117.000	45.869	-6.827	4.079
118.000	46.072	-6.817	4.078
119.000	45.977	-6.805	4.077
120.000	46.125	-6.795	4.076
121.000	46.156	-6.785	4.075
122.000	46.350	-6.777	4.074
123.000	46.364	-6.767	4.073
124.000	46.480	-6.761	4.071
125.000	46.655	-6.754	4.070
126.000	46.683	-6.751	4.069
127.000	46.801	-6.745	4.068
128.000	46.784	-6.742	4.067
129.000	47.064	-6.739	4.066
130.000	47.086	-6.737	4.065
131.000	47.290	-6.736	4.064
132.000	47.257	-6.735	4.063
133.000	47.483	-6.736	4.062
134.000	47.532	-6.738	4.061
135.000	47.717	-6.740	4.060
136.000	47.773	-6.743	4.059
137.000	47.965	-6.749	4.058
138.000	48.128	-6.754	4.057
139.000	48.241	-6.760	4.056
140.000	48.351	-6.766	4.055
141.000	48.406	-6.775	4.054
142.000	48.692	-6.782	4.053
143.000	48.726	-6.790	4.052
144.000	48.935	-6.799	4.050
145.000	48.999	-6.808	4.049
146.000	49.294	-6.820	4.048
147.000	49.342	-6.830	4.047
148.000	49.502	-6.841	4.046
149.000	49.635	-6.853	4.046
150.000	49.857	-6.868	4.044
151.000	50.047	-6.880	4.043
152.000	50.122	-6.896	4.042
153.000	50.353	-6.910	4.041
154.000	50.455	-6.927	4.040
155.000	50.734	-6.943	4.039
156.000	50.738	-6.958	4.039
157.000	51.049	-6.977	4.038
158.000	51.131	-6.993	4.037
159.000	51.481	-7.013	4.036
160.000	51.518	-7.031	4.035
161.000	51.777	-7.051	4.034
162.000	51.911	-7.071	4.033
163.000	52.160	-7.093	4.032
164.000	52.314	-7.111	4.031
165.000	52.446	-7.133	4.030
166.000	52.742	-7.153	4.029
167.000	52.921	-7.175	4.028
168.000	53.155	-7.193	4.027
169.000	53.192	-7.215	4.026
170.000	53.529	-7.236	4.025
171.000	53.662	-7.257	4.023
172.000	53.977	-7.277	4.022
173.000	54.094	-7.299	4.022
174.000	54.408	-7.321	4.021
175.000	54.544	-7.343	4.020
176.000	54.777	-7.366	4.018
177.000	54.907	-7.387	4.017
178.000	55.136	-7.410	4.016
179.000	55.403	-7.431	4.015
180.000	55.558	-7.454	4.014
181.000	55.826	-7.474	4.013
182.000	55.943	-7.496	4.012
183.000	56.272	-7.518	4.011
184.000	56.399	-7.537	4.010
185.000	56.672	-7.558	4.009
186.000	56.829	-7.578	4.008
187.000	57.164	-7.599	4.007
188.000	57.330	-7.616	4.007
189.000	57.552	-7.636	4.006
190.000	57.713	-7.655	4.005
191.000	57.941	-7.673	4.004
192.000	58.223	-7.690	4.003
193.000	58.337	-7.707	4.002
194.000	58.643	-7.722	4.001
195.000	58.781	-7.739	4.000
196.000	59.176	-7.754	3.999
197.000	59.199	-7.767	3.998
198.000	59.533	-7.782	3.997
199.000	59.680	-7.795	3.996
200.000	60.017	-7.808	3.995
201.000	60.154	-7.817	3.994
202.000	60.379	-7.828	3.993
203.000	60.615	-7.837	3.992
204.000	60.839	-7.847	3.991
205.000	61.034	-7.851	3.990
206.000	61.171	-7.860	3.989
207.000	61.496	-7.864	3.989
208.000	61.637	-7.869	3.988
209.000	61.963	-7.871	3.987
210.000	62.075	-7.873	3.986
211.000	62.386	-7.876	3.985
212.000	62.534	-7.876	3.984
213.000	62.823	-7.875	3.983
214.000	62.928	-7.872	3.982
215.000	63.231	-7.871	3.982
216.000	63.436	-7.867	3.981
217.000	63.649	-7.862	3.980
218.000	63.809	-7.855	3.979
219.000	63.960	-7.850	3.978
220.000	64.285	-7.841	3.977
221.000	64.417	-7.832	3.976
222.000	64.711	-7.821	3.976
223.000	64.823	-7.810	3.975
224.000	65.168	-7.799	3.974
225.000	65.264	-7.786	3.973
226.000	65.466	-7.772	3.972
227.000	65.619	-7.757	3.972
228.000	65.907	-7.743	3.971
229.000	66.109	-7.727	3.970
230.000	66.234	-7.711	3.969
231.000	66.486	-7.693	3.968
232.000	66.629	-7.677	3.968
233.000	66.905	-7.657	3.967
234.000	66.935	-7.635	3.966
235.000	67.273	-7.616	3.966
236.000	67.396	-7.593	3.965
237.000	67.723	-7.571	3.964
238.000	67.779	-7.547	3.964
239.000	68.029	-7.524	3.963
240.000	68.166	-7.500	3.962
241.000	68.400	-7.475	3.961
242.000	68.576	-7.446	3.961
243.000	68.708	-7.420	3.960
244.000	68.977	-7.392	3.959
245.000	69.141	-7.364	3.959
246.000	69.355	-7.333	3.958
247.000	69.406	-7.304	3.958
248.000	69.738	-7.274	3.957
249.000	69.848	-7.244	3.956
250.000	70.124	-7.213	3.956
251.000	70.161	-7.181	3.955
252.000	70.464	-7.150	3.955
253.000	70.588	-7.118	3.954
254.000	70.786	-7.086	3.953
255.000	70.890	-7.053	3.953
256.000	71.084	-7.022	3.952
257.000	71.339	-6.988	3.952
258.000	71.447	-6.954	3.951
259.000	71.705	-6.918	3.951
260.000	71.782	-6.886	3.950
261.000	72.094	-6.852	3.950
262.000	72.156	-6.816	3.949
263.000	72.386	-6.780	3.949
264.000	72.484	-6.745	3.948
265.000	72.778	-6.711	3.948
266.000	72.905	-6.674	3.947
267.000	73.058	-6.640	3.947
268.000	73.197	-6.604	3.947
269.000	73.363	-6.569	3.946
270.000	73.605	-6.532	3.946
271.000	73.658	-6.496	3.945
272.000	73.959	-6.458	3.945
273.000	74.037	-6.423	3.945
274.000	74.377	-6.386	3.944
275.000	74.349	-6.348	3.944
276.000	74.604	-6.312	3.943
277.000	74.706	-6.276	3.943
278.000	74.983	-6.241	3.942
279.000	75.052	-6.204	3.942
280.000	75.219	-6.169	3.941
281.000	75.436	-6.133	3.941
282.000	75.572	-6.098	3.941
283.000	75.727	-6.061	3.940
284.000	75.808	-6.026	3.940
285.000	76.110	-5.989	3.940
286.000	76.198	-5.953	3.939
287.000	76.438	-5.917	3.939
288.000	76.504	-5.881	3.939
289.000	76.749	-5.846	3.938
290.000	76.843	-5.810	3.938
291.000	77.035	-5.774	3.938
292.000	77.134	-5.739	3.938
293.000	77.352	-5.706	3.937
294.000	77.548	-5.670	3.937
295.000	77.670	-5.636	3.936
296.000	77.844	-5.602	3.936
297.000	77.933	-5.570	3.936
298.000	78.243	-5.537	3.935
299.000	78.297	-5.503	3.935
300.000	78.539	-5.471	3.935
301.000	78.607	-5.439	3.935
302.000	78.913	-5.408	3.934
303.000	78.972	-5.376	3.934
304.000	79.120	-5.346	3.934
305.000	79.269	-5.314	3.934
306.000	79.468	-5.287	3.933
307.000	79.665	-5.256	3.933
308.000	79.737	-5.229	3.933
309.000	80.018	-5.200	3.933
310.000	80.084	-5.174	3.932
311.000	80.357	-5.146	3.932
312.000	80.355	-5.117	3.932
313.000	80.645	-5.091	3.932
314.000	80.768	-5.064	3.932
315.000	81.012	-5.038	3.932
316.000	81.084	-5.011	3.932
317.000	81.271	-4.985	3.931
318.000	81.426	-4.959	3.931
319.000	81.607	-4.934	3.931
320.000	81.768	-4.907	3.931
321.000	81.904	-4.883	3.930
322.000	82.183	-4.858	3.930
323.000	82.277	-4.833	3.930
324.000	82.492	-4.808	3.930
325.000	82.526	-4.785	3.930
326.000	82.834	-4.762	3.930
327.000	82.940	-4.739	3.930
328.000	83.140	-4.716	3.930
329.000	83.240	-4.693	3.930
330.000	83.495	-4.672	3.929
331.000	83.650	-4.650	3.929
332.000	83.755	-4.628	3.929
333.000	83.936	-4.606	3.929
334.000	84.107	-4.586	3.929
335.000	84.397	-4.565	3.929
336.000	84.440	-4.543	3.929
337.000	84.724	-4.523	3.928
338.000	84.775	-4.504	3.928
339.000	85.052	-4.485	3.928
340.000	85.124	-4.464	3.928
341.000	85.336	-4.446	3.928
342.000	85.488	-4.427	3.927
343.000	85.711	-4.409	3.927
344.000	85.879	-4.391	3.927
345.000	85.970	-4.374	3.927
346.000	86.210	-4.356	3.927
347.000	86.326	-4.340	3.927
348.000	86.615	-4.323	3.927
349.000	86.645	-4.306	3.927
350.000	86.947	-4.291	3.926
351.000	87.082	-4.276	3.926
352.000	87.313	-4.261	3.926
353.000	87.345	-4.248	3.926
354.000	87.594	-4.235	3.926
355.000	87.784	-4.222	3.926
356.000	87.962	-4.209	3.926
357.000	88.121	-4.196	3.926
358.000	88.285	-4.185	3.926
359.000	88.563	-4.174	3.926
360.000	88.653	-4.162	3.926
361.000	88.868	-4.151	3.926
362.000	88.983	-4.141	3.926
363.000	89.277	-4.132	3.926
364.000	89.393	-4.121	3.926
365.000	89.612	-4.110	3.925
366.000	89.714	-4.102	3.925
367.000	89.949	-4.093	3.925
368.000	90.120	-4.083	3.925
369.000	90.261	-4.074	3.925
370.000	90.495	-4.064	3.925
371.000	90.650	-4.056	3.925
372.000	90.963	-4.045	3.925
373.000	90.994	-4.038	3.925
374.000	91.257	-4.029	3.925
375.000	91.367	-4.020	3.925
376.000	91.662	-4.012	3.925
377.000	91.729	-4.004	3.925
378.000	91.980	-3.997	3.924
379.000	92.138	-3.988	3.925
380.000	92.398	-3.983	3.924
381.000	92.484	-3.975	3.924
382.000	92.633	-3.968	3.924
383.000	92.896	-3.960	3.924
384.000	93.062	-3.955	3.924
385.000	93.322	-3.946	3.924
386.000	93.374	-3.939	3.924
387.000	93.709	-3.933	3.924
388.000	93.780	-3.926	3.924
389.000	94.029	-3.920	3.924
390.000	94.102	-3.911	3.924
391.000	94.384	-3.905	3.924
392.000	94.552	-3.898	3.924
393.000	94.742	-3.891	3.924
394.000	94.924	-3.884	3.924
395.000	95.069	-3.879	3.924
396.000	95.346	-3.871	3.924
397.000	95.425	-3.865	3.924
398.000	95.668	-3.858	3.924
399.000	95.767	-3.851	3.924
400.000	96.079	-3.847	3.924
401.000	96.203	-3.837	3.924
402.000	96.374	-3.830	3.924
403.000	96.492	-3.823	3.924
404.000	96.748	-3.819	3.924
405.000	96.905	-3.810	3.924
406.000	97.042	-3.804	3.924
407.000	97.270	-3.797	3.924
408.000	97.451	-3.792	3.924
409.000	97.691	-3.785	3.924
410.000	97.720	-3.779	3.924
411.000	98.035	-3.772	3.924
412.000	98.122	-3.767	3.924
413.000	98.429	-3.761	3.924
414.000	98.454	-3.754	3.923
415.000	98.742	-3.749	3.923
416.000	98.850	-3.743	3.923
417.000	99.089	-3.737	3.923
418.000	99.205	-3.730	3.924
419.000	99.391	-3.727	3.924
420.000	99.652	-3.721	3.924
421.000	99.775	-3.716	3.923
422.000	100.014	-3.710	3.924
423.000	100.053	-3.706	3.924
424.000	100.358	-3.700	3.924
425.000	100.446	-3.695	3.923
426.000	100.698	-3.689	3.923
427.000	100.795	-3.683	3.923
428.000	101.070	-3.679	3.923
429.000	101.222	-3.674	3.924
430.000	101.360	-3.670	3.924
431.000	101.502	-3.665	3.923
432.000	101.709	-3.661	3.923
433.000	101.966	-3.657	3.923
434.000	102.039	-3.652	3.923
435.000	102.305	-3.648	3.923
436.000	102.425	-3.644	3.923
437.000	102.678	-3.640	3.924
438.000	102.737	-3.635	3.924
439.000	102.974	-3.631	3.924
440.000	103.145	-3.626	3.924
441.000	103.370	-3.622	3.924
442.000	103.498	-3.616	3.924
443.000	103.683	-3.613	3.923
444.000	103.874	-3.608	3.923
445.000	104.020	-3.605	3.924
446.000	104.254	-3.598	3.924
447.000	104.319	-3.595	3.924
448.000	104.630	-3.591	3.923
449.000	104.717	-3.586	3.923
450.000	105.003	-3.581	3.923
451.000	105.016	-3.576	3.923
452.000	105.274	-3.574	3.923
453.000	105.384	-3.570	3.923
454.000	105.644	-3.565	3.924
455.000	105.732	-3.560	3.924
456.000	105.928	-3.558	3.923
457.000	106.177	-3.553	3.923
458.000	106.295	-3.550	3.923
459.000	106.454	-3.546	3.923
460.000	106.549	-3.543	3.923
461.000	106.872	-3.539	3.923
462.000	106.943	-3.534	3.923
463.000	107.154	-3.531	3.924
464.000	107.295	-3.527	3.924
465.000	107.531	-3.523	3.924
466.000	107.629	-3.519	3.923
467.000	107.781	-3.515	3.923
468.000	107.985	-3.511	3.923
469.000	108.171	-3.508	3.923
470.000	108.410	-3.503	3.923
471.000	108.491	-3.500	3.923
472.000	108.724	-3.496	3.924
473.000	108.809	-3.493	3.924
474.000	109.100	-3.489	3.924
475.000	109.126	-3.485	3.924
476.000	109.390	-3.482	3.924
477.000	109.506	-3.479	3.924
478.000	109.809	-3.476	3.923
479.000	109.850	-3.472	3.924
480.000	110.032	-3.471	3.924
481.000	110.252	-3.468	3.924
482.000	110.432	-3.467	3.924
483.000	110.617	-3.464	3.924
484.000	110.705	-3.464	3.924
485.000	111.028	-3.462	3.924
486.000	111.072	-3.462	3.924
487.000	111.321	-3.460	3.924
488.000	111.358	-3.459	3.924
489.000	111.673	-3.459	3.924
490.000	111.766	-3.458	3.923
491.000	112.009	-3.457	3.924
492.000	112.140	-3.455	3.924
493.000	112.352	-3.457	3.924
494.000	112.544	-3.455	3.924
495.000	112.662	-3.455	3.924
496.000	112.875	-3.456	3.924
497.000	112.997	-3.457	3.924
498.000	113.293	-3.457	3.924
499.000	113.376	-3.457	3.924
500.000	113.585	-3.458	3.924
501.000	113.670	-3.458	3.924
502.000	113.953	-3.459	3.924
503.000	114.081	-3.457	3.924
504.000	114.265	-3.458	3.924
505.000	114.434	-3.459	3.923
506.000	114.678	-3.459	3.923
507.000	114.859	-3.459	3.923
508.000	114.924	-3.461	3.924
509.000	115.164	-3.461	3.924
510.000	115.290	-3.463	3.924
511.000	115.603	-3.462	3.924
512.000	115.623	-3.462	3.924
513.000	115.920	-3.462	3.924
514.000	116.026	-3.464	3.924
515.000	116.268	-3.464	3.924
516.000	116.332	-3.465	3.924
517.000	116.575	-3.466	3.924
518.000	116.778	-3.465	3.924
519.000	116.967	-3.468	3.924
520.000	117.125	-3.467	3.925
521.000	117.278	-3.470	3.924
522.000	117.515	-3.472	3.924
523.000	117.617	-3.473	3.924
524.000	117.846	-3.474	3.924
525.000	117.937	-3.475	3.924
526.000	118.251	-3.476	3.924
527.000	118.346	-3.477	3.924
528.000	118.582	-3.480	3.924
529.000	118.654	-3.482	3.924
530.000	118.887	-3.485	3.924
531.000	119.087	-3.486	3.924
532.000	119.247	-3.488	3.924
533.000	119.446	-3.490	3.924
534.000	119.576	-3.493	3.924
535.000	119.896	-3.496	3.924
536.000	119.896	-3.498	3.924
537.000	120.143	-3.500	3.924
538.000	120.264	-3.503	3.924
539.000	120.573	-3.506	3.924
540.000	120.662	-3.506	3.924
541.000	120.859	-3.509	3.925
542.000	121.048	-3.510	3.925
543.000	121.241	-3.514	3.925
544.000	121.406	-3.514	3.925
545.000	121.538	-3.516	3.925
546.000	121.796	-3.518	3.925
547.000	121.923	-3.520	3.925
548.000	122.184	-3.520	3.925
549.000	122.258	-3.521	3.925
550.000	122.528	-3.522	3.925
551.000	122.630	-3.524	3.925
552.000	122.891	-3.523	3.925
553.000	122.957	-3.523	3.925
554.000	123.222	-3.526	3.925
555.000	123.410	-3.527	3.925
556.000	123.628	-3.528	3.925
557.000	123.739	-3.528	3.925
558.000	123.883	-3.531	3.925
559.000	124.145	-3.532	3.925
560.000	124.269	-3.533	3.925
561.000	124.503	-3.535	3.925
562.000	124.576	-3.537	3.925
563.000	124.922	-3.538	3.925
564.000	125.009	-3.541	3.925
565.000	125.192	-3.543	3.925
566.000	125.330	-3.544	3.925
567.000	125.592	-3.546	3.925
568.000	125.771	-3.547	3.925
569.000	125.898	-3.549	3.925
570.000	126.128	-3.549	3.925
571.000	126.241	-3.552	3.925
572.000	126.509	-3.553	3.925
573.000	126.542	-3.555	3.925
574.000	126.838	-3.557	3.925
575.000	126.952	-3.558	3.925
576.000	127.228	-3.560	3.926
577.000	127.310	-3.560	3.926
578.000	127.520	-3.562	3.926
579.000	127.658	-3.561	3.926
580.000	127.900	-3.562	3.926
581.000	128.046	-3.561	3.926
582.000	128.214	-3.562	3.926
583.000	128.446	-3.562	3.926
584.000	128.609	-3.563	3.926
585.000	128.803	-3.562	3.926
586.000	128.860	-3.562	3.926
587.000	129.164	-3.562	3.926
588.000	129.261	-3.562	3.926
589.000	129.513	-3.562	3.926
590.000	129.590	-3.561	3.926
591.000	129.890	-3.562	3.926
592.000	130.002	-3.562	3.926
593.000	130.167	-3.562	3.926
594.000	130.342	-3.561	3.926
595.000	130.520	-3.563	3.926
596.000	130.785	-3.562	3.926
597.000	130.866	-3.562	3.926
598.000	131.113	-3.562	3.926
599.000	131.188	-3.562	3.926
600.000	131.475	-3.562	3.926
601.000	131.545	-3.561	3.927
602.000	131.788	-3.561	3.927
603.000	131.921	-3.560	3.927
604.000	132.163	-3.561	3.927
605.000	132.347	-3.560	3.927
606.000	132.458	-3.561	3.927
607.000	132.659	-3.562	3.927
608.000	132.819	-3.563	3.926
609.000	133.059	-3.562	3.926
610.000	133.109	-3.561	3.927
611.000	133.409	-3.562	3.927
612.000	133.531	-3.562	3.927
613.000	133.786	-3.561	3.927
614.000	133.800	-3.559	3.927
615.000	134.073	-3.560	3.927
616.000	134.227	-3.559	3.927
617.000	134.465	-3.558	3.927
618.000	134.589	-3.557	3.927
619.000	134.794	-3.558	3.927
620.000	134.986	-3.557	3.927
621.000	135.104	-3.557	3.927
622.000	135.295	-3.556	3.927
623.000	135.397	-3.558	3.927
624.000	135.694	-3.558	3.927
625.000	135.782	-3.558	3.927
626.000	136.017	-3.558	3.927
627.000	136.092	-3.558	3.927
628.000	136.334	-3.559	3.927
629.000	136.504	-3.558	3.927
630.000	136.672	-3.558	3.927
631.000	136.832	-3.558	3.927
632.000	137.011	-3.559	3.927
633.000	137.270	-3.559	3.927
634.000	137.296	-3.559	3.927
635.000	137.527	-3.559	3.928
636.000	137.631	-3.560	3.928
637.000	137.944	-3.559	3.928
638.000	137.998	-3.558	3.928
639.000	138.237	-3.559	3.928
640.000	138.404	-3.557	3.928
641.000	138.618	-3.559	3.928
642.000	138.711	-3.556	3.928
643.000	138.868	-3.557	3.928
644.000	139.086	-3.556	3.928
645.000	139.239	-3.558	3.928
646.000	139.448	-3.556	3.928
647.000	139.549	-3.557	3.927
648.000	139.816	-3.558	3.927
649.000	139.877	-3.559	3.927
650.000	140.132	-3.559	3.927
651.000	140.211	-3.560	3.927
652.000	140.482	-3.562	3.927
653.000	140.625	-3.563	3.928
654.000	140.837	-3.564	3.928
655.000	140.961	-3.565	3.928
656.000	141.127	-3.568	3.928
657.000	141.352	-3.569	3.928
658.000	141.472	-3.570	3.928
659.000	141.670	-3.570	3.928
660.000	141.782	-3.571	3.928
661.000	142.095	-3.573	3.928
662.000	142.137	-3.573	3.928
663.000	142.357	-3.573	3.928
664.000	142.466	-3.574	3.928
665.000	142.743	-3.577	3.928
666.000	142.877	-3.576	3.928
667.000	143.051	-3.578	3.928
668.000	143.267	-3.579	3.928
669.000	143.414	-3.581	3.928
670.000	143.620	-3.580	3.928
671.000	143.672	-3.582	3.928
672.000	143.957	-3.583	3.928
673.000	144.060	-3.584	3.928
674.000	144.347	-3.584	3.928
675.000	144.402	-3.584	3.928
676.000	144.642	-3.587	3.928
677.000	144.748	-3.588	3.928
678.000	145.009	-3.590	3.928
679.000	145.114	-3.591	3.928
680.000	145.310	-3.595	3.928
681.000	145.521	-3.597	3.928
682.000	145.696	-3.600	3.928
683.000	145.852	-3.601	3.928
684.000	145.924	-3.606	3.928
685.000	146.231	-3.607	3.928
686.000	146.316	-3.608	3.928
687.000	146.555	-3.610	3.928
688.000	146.635	-3.611	3.928
689.000	146.931	-3.613	3.928
690.000	147.052	-3.613	3.928
691.000	147.212	-3.615	3.928
692.000	147.345	-3.615	3.928
693.000	147.573	-3.617	3.928
694.000	147.780	-3.618	3.928
695.000	147.882	-3.619	3.928
696.000	148.129	-3.620	3.928
697.000	148.219	-3.622	3.928
698.000	148.488	-3.623	3.928
699.000	148.531	-3.623	3.928
700.000	148.796	-3.625	3.928
701.000	148.917	-3.626	3.928
702.000	149.195	-3.628	3.928
703.000	149.318	-3.627	3.928
704.000	149.468	-3.630	3.928
705.000	149.648	-3.631	3.928
706.000	149.830	-3.634	3.928
707.000	150.034	-3.634	3.928
708.000	150.118	-3.638	3.928
709.000	150.411	-3.640	3.929
710.000	150.525	-3.642	3.929
711.000	150.784	-3.642	3.929
712.000	150.815	-3.645	3.929
713.000	151.084	-3.648	3.929
714.000	151.223	-3.650	3.929
715.000	151.461	-3.653	3.929
716.000	151.567	-3.654	3.929
717.000	151.812	-3.657	3.929
718.000	151.993	-3.660	3.929
719.000	152.117	-3.664	3.929
720.000	152.292	-3.665	3.929
721.000	152.419	-3.669	3.929
722.000	152.726	-3.671	3.929
723.000	152.807	-3.673	3.929
724.000	153.052	-3.676	3.929
725.000	153.144	-3.679	3.929
726.000	153.407	-3.683	3.929
727.000	153.535	-3.684	3.929
728.000	153.727	-3.687	3.929
729.000	153.889	-3.690	3.929
730.000	154.102	-3.693	3.929
731.000	154.323	-3.694	3.929
732.000	154.415	-3.698	3.929
733.000	154.648	-3.701	3.929
734.000	154.739	-3.705	3.929
735.000	155.058	-3.706	3.929
736.000	155.088	-3.707	3.929
737.000	155.359	-3.710	3.929
738.000	155.503	-3.711	3.929
739.000	155.779	-3.715	3.929
740.000	155.847	-3.717	3.929
741.000	156.025	-3.719	3.929
742.000	156.249	-3.720	3.929
743.000	156.423	-3.723	3.929
744.000	156.592	-3.724	3.929
745.000	156.699	-3.726	3.929
746.000	157.000	-3.728	3.929
747.000	157.079	-3.731	3.929
748.000	157.301	-3.732	3.929
749.000	157.366	-3.734	3.929
750.000	157.688	-3.737	3.929
751.000	157.805	-3.738	3.929
752.000	158.006	-3.739	3.929
753.000	158.147	-3.741	3.929
754.000	158.336	-3.743	3.929
755.000	158.530	-3.744	3.929
756.000	158.656	-3.745	3.929
757.000	158.865	-3.746	3.929
758.000	158.996	-3.748	3.929
759.000	159.281	-3.749	3.929
760.000	159.371	-3.748	3.929
761.000	159.564	-3.748	3.929
762.000	159.657	-3.750	3.929
763.000	159.950	-3.750	3.929
764.000	160.059	-3.749	3.929
765.000	160.258	-3.751	3.929
766.000	160.426	-3.751	3.930
767.000	160.652	-3.753	3.930
768.000	160.784	-3.753	3.930
769.000	160.878	-3.754	3.930
770.000	161.141	-3.754	3.930
771.000	161.252	-3.755	3.930
772.000	161.506	-3.755	3.930
773.000	161.555	-3.756	3.930
774.000	161.857	-3.757	3.929
775.000	161.938	-3.757	3.929
776.000	162.182	-3.758	3.929
777.000	162.253	-3.759	3.929
778.000	162.478	-3.762	3.929
779.000	162.671	-3.762	3.929
780.000	162.840	-3.763	3.929
781.000	163.028	-3.763	3.929
782.000	163.131	-3.766	3.929
783.000	163.380	-3.766	3.929
784.000	163.471	-3.766	3.929
785.000	163.695	-3.767	3.929
786.000	163.779	-3.767	3.929
787.000	164.069	-3.769	3.929
788.000	164.224	-3.768	3.929
789.000	164.365	-3.770	3.929
790.000	164.507	-3.771	3.929
791.000	164.724	-3.773	3.929
792.000	164.928	-3.774	3.929
793.000	165.054	-3.774	3.930
794.000	165.248	-3.776	3.930
795.000	165.397	-3.779	3.929
796.000	165.633	-3.779	3.930
797.000	165.653	-3.779	3.930
798.000	165.910	-3.781	3.929
799.000	166.021	-3.783	3.929
800.000	166.307	-3.785	3.929
801.000	166.389	-3.786	3.929
802.000	166.605	-3.788	3.929
803.000	166.746	-3.789	3.929
804.000	166.942	-3.792	3.929
805.000	167.091	-3.791	3.929
806.000	167.212	-3.794	3.929
807.000	167.478	-3.794	3.929
808.000	167.597	-3.796	3.929
809.000	167.835	-3.796	3.929
810.000	167.873	-3.797	3.929
811.000	168.146	-3.799	3.929
812.000	168.260	-3.800	3.929
813.000	168.488	-3.800	3.929
814.000	168.592	-3.801	3.930
815.000	168.826	-3.802	3.930
816.000	169.024	-3.802	3.930
817.000	169.142	-3.803	3.930
818.000	169.285	-3.803	3.930
819.000	169.435	-3.806	3.929
820.000	169.698	-3.805	3.929
821.000	169.783	-3.806	3.929
822.000	170.011	-3.806	3.929
823.000	170.121	-3.806	3.929
824.000	170.388	-3.807	3.929
825.000	170.466	-3.807	3.930
826.000	170.670	-3.808	3.930
827.000	170.835	-3.808	3.930
828.000	171.067	-3.810	3.930
829.000	171.231	-3.811	3.930
830.000	171.356	-3.813	3.930
831.000	171.570	-3.815	3.930
832.000	171.694	-3.817	3.930
833.000	171.939	-3.818	3.930
834.000	171.977	-3.819	3.930
835.000	172.284	-3.822	3.930
836.000	172.395	-3.823	3.930
837.000	172.672	-3.825	3.930
838.000	172.713	-3.826	3.930
839.000	172.942	-3.829	3.930
840.000	173.118	-3.831	3.930
841.000	173.326	-3.832	3.930
842.000	173.465	-3.834	3.930
843.000	173.603	-3.836	3.930
844.000	173.876	-3.839	3.930
845.000	173.968	-3.841	3.930
846.000	174.171	-3.842	3.930
847.000	174.252	-3.846	3.930
848.000	174.553	-3.849	3.930
849.000	174.667	-3.851	3.930
850.000	174.882	-3.853	3.930
851.000	175.011	-3.855	3.930
852.000	175.226	-3.859	3.930
853.000	175.399	-3.860	3.930
854.000	175.529	-3.863	3.930
855.000	175.729	-3.866	3.930
856.000	175.882	-3.870	3.930
857.000	176.130	-3.872	3.930
858.000	176.194	-3.874	3.930
859.000	176.441	-3.877	3.930
860.000	176.542	-3.879	3.930
861.000	176.813	-3.883	3.930
862.000	176.907	-3.885	3.930
863.000	177.140	-3.889	3.930
864.000	177.284	-3.890	3.930
865.000	177.534	-3.894	3.930
866.000	177.644	-3.894	3.930
867.000	177.756	-3.898	3.930
868.000	177.995	-3.899	3.930
869.000	178.138	-3.903	3.930
870.000	178.371	-3.902	3.929
871.000	178.408	-3.905	3.929
872.000	178.740	-3.907	3.929
873.000	178.811	-3.909	3.929
874.000	179.037	-3.910	3.929
875.000	179.128	-3.912	3.929
876.000	179.384	-3.915	3.929
877.000	179.550	-3.916	3.929
878.000	179.746	-3.917	3.930
879.000	179.890	-3.918	3.930
880.000	180.033	-3.920	3.930
881.000	180.257	-3.922	3.930
882.000	180.350	-3.924	3.930
883.000	180.591	-3.925	3.929
884.000	180.691	-3.927	3.929
885.000	180.989	-3.930	3.929
886.000	181.082	-3.930	3.929
887.000	181.268	-3.932	3.929
888.000	181.397	-3.933	3.929
889.000	181.622	-3.937	3.929
890.000	181.794	-3.936	3.929
891.000	181.937	-3.939	3.930
892.000	182.134	-3.940	3.930
893.000	182.312	-3.943	3.930
894.000	182.520	-3.944	3.930
895.000	182.544	-3.945	3.930
896.000	182.828	-3.947	3.930
897.000	182.940	-3.948	3.929
898.000	183.223	-3.949	3.929
899.000	183.284	-3.950	3.929
900.000	183.551	-3.952	3.929
901.000	183.669	-3.954	3.929
902.000	183.872	-3.957	3.929
903.000	183.979	-3.958	3.929
904.000	184.167	-3.960	3.929
905.000	184.416	-3.961	3.929
906.000	184.539	-3.963	3.929
907.000	184.758	-3.964	3.929
908.000	184.804	-3.967	3.929
909.000	185.098	-3.968	3.929
910.000	185.205	-3.970	3.929
911.000	185.432	-3.972	3.929
912.000	185.539	-3.974	3.929
913.000	185.798	-3.977	3.929
914.000	185.953	-3.978	3.929
915.000	186.093	-3.981	3.929
916.000	186.241	-3.982	3.929
917.000	186.419	-3.985	3.929
918.000	186.669	-3.986	3.929
919.000	186.725	-3.987	3.929
920.000	186.969	-3.988	3.929
921.000	187.105	-3.990	3.929
922.000	187.362	-3.992	3.929
923.000	187.411	-3.993	3.929
924.000	187.640	-3.995	3.929
925.000	187.792	-3.997	3.929
926.000	188.029	-4.001	3.929
927.000	188.158	-4.002	3.929
928.000	188.329	-4.005	3.929
929.000	188.515	-4.008	3.929
930.000	188.645	-4.013	3.929
931.000	188.867	-4.014	3.929
932.000	188.931	-4.018	3.929
933.000	189.238	-4.021	3.929
934.000	189.332	-4.025	3.929
935.000	189.614	-4.026	3.929
936.000	189.656	-4.029	3.929
937.000	189.896	-4.032	3.929
938.000	190.041	-4.034	3.929
939.000	190.268	-4.037	3.929
940.000	190.379	-4.037	3.929
941.000	190.567	-4.041	3.928
942.000	190.805	-4.043	3.928
943.000	190.904	-4.045	3.929
944.000	191.096	-4.047	3.928
945.000	191.198	-4.050	3.928
946.000	191.492	-4.052	3.928
947.000	191.573	-4.053	3.928
948.000	191.806	-4.055	3.928
949.000	191.942	-4.058	3.928
950.000	192.163	-4.061	3.928
951.000	192.306	-4.061	3.928
952.000	192.462	-4.064	3.928
953.000	192.656	-4.065	3.928
954.000	192.822	-4.068	3.928
955.000	193.048	-4.069	3.928
956.000	193.142	-4.072	3.928
957.000	193.375	-4.073	3.928
958.000	193.449	-4.075	3.928
959.000	193.748	-4.077	3.928
960.000	193.810	-4.078	3.928
961.000	194.056	-4.080	3.928
962.000	194.200	-4.082	3.928
963.000	194.461	-4.085	3.928
964.000	194.524	-4.086	3.928
965.000	194.705	-4.089	3.928
966.000	194.908	-4.092	3.928
967.000	195.081	-4.094	3.928
968.000	195.257	-4.096	3.928
969.000	195.374	-4.100	3.928
970.000	195.665	-4.104	3.928
971.000	195.735	-4.105	3.928
972.000	195.946	-4.108	3.928
973.000	196.050	-4.110	3.928
974.000	196.319	-4.114	3.928
975.000	196.462	-4.116	3.928
976.000	196.637	-4.119	3.928
977.000	196.800	-4.121	3.928
978.000	196.963	-4.124	3.928
979.000	197.161	-4.126	3.928
980.000	197.243	-4.128	3.928
981.000	197.493	-4.130	3.928
982.000	197.604	-4.133	3.927
983.000	197.894	-4.135	3.928
984.000	197.969	-4.137	3.928
985.000	198.192	-4.140	3.927
986.000	198.312	-4.142	3.927
987.000	198.552	-4.146	3.927
988.000	198.674	-4.147	3.927
989.000	198.839	-4.150	3.927
990.000	199.035	-4.153	3.927
991.000	199.238	-4.156	3.927
992.000	199.416	-4.156	3.927
993.000	199.467	-4.159	3.927
994.000	199.737	-4.162	3.927
995.000	199.849	-4.164	3.927
996.000	200.105	-4.164	3.926
997.000	200.160	-4.166	3.926
998.000	200.454	-4.169	3.926
999.000	200.559	-4.171	3.926
1000.000	200.759	-4.173	3.926
1001.000	200.872	-4.174	3.926
1002.000	201.068	-4.179	3.926
1003.000	201.281	-4.181	3.926
1004.000	201.399	-4.185	3.926
1005.000	201.633	-4.187	3.926
1006.000	201.722	-4.191	3.926
1007.000	201.977	-4.193	3.926
1008.000	202.062	-4.196	3.926
1009.000	202.300	-4.199	3.926
1010.000	202.411	-4.201	3.926
1011.000	202.681	-4.204	3.926
1012.000	202.821	-4.205	3.926
1013.000	202.958	-4.207	3.926
1014.000	203.126	-4.209	3.925
1015.000	203.300	-4.213	3.925
1016.000	203.517	-4.212	3.925
1017.000	203.592	-4.214	3.925
1018.000	203.865	-4.216	3.925
1019.000	203.973	-4.218	3.925
1020.000	204.227	-4.220	3.925
1021.000	204.251	-4.220	3.925
1022.000	204.496	-4.223	3.925
1023.000	204.638	-4.226	3.925
1024.000	204.899	-4.227	3.925
1025.000	204.980	-4.228	3.925
1026.000	205.205	-4.232	3.925
1027.000	205.385	-4.235	3.925
1028.000	205.527	-4.239	3.924
1029.000	205.688	-4.242	3.924
1030.000	205.799	-4.246	3.924
1031.000	206.073	-4.250	3.924
1032.000	206.176	-4.254	3.924
1033.000	206.424	-4.257	3.924
1034.000	206.473	-4.261	3.924
1035.000	206.745	-4.265	3.924
1036.000	206.875	-4.269	3.924
1037.000	207.051	-4.271	3.923
1038.000	207.182	-4.274	3.923
1039.000	207.378	-4.279	3.923
1040.000	207.620	-4.281	3.923
1041.000	207.692	-4.284	3.923
1042.000	207.893	-4.287	3.923
1043.000	207.997	-4.292	3.923
1044.000	208.285	-4.295	3.923
1045.000	208.343	-4.298	3.923
1046.000	208.591	-4.302	3.923
1047.000	208.722	-4.305	3.923
1048.000	208.967	-4.310	3.922
1049.000	209.039	-4.313	3.922
1050.000	209.222	-4.319	3.922
1051.000	209.420	-4.321	3.922
1052.000	209.591	-4.327	3.922
1053.000	209.776	-4.328	3.922
1054.000	209.886	-4.333	3.922
1055.000	210.134	-4.337	3.922
1056.000	210.215	-4.340	3.922
1057.000	210.474	-4.343	3.922
1058.000	210.542	-4.346	3.922
1059.000	210.819	-4.350	3.921
1060.000	210.938	-4.353	3.921
1061.000	211.193	-4.354	3.921
1062.000	211.279	-4.357	3.921
1063.000	211.451	-4.362	3.921
1064.000	211.647	-4.364	3.921
1065.000	211.794	-4.366	3.921
1066.000	211.987	-4.369	3.921
1067.000	212.092	-4.372	3.921
1068.000	212.398	-4.374	3.921
1069.000	212.466	-4.377	3.920
1070.000	212.651	-4.379	3.920
1071.000	212.763	-4.382	3.920
1072.000	213.040	-4.386	3.920
1073.000	213.151	-4.388	3.920
1074.000	213.353	-4.392	3.920
1075.000	213.510	-4.395	3.920
1076.000	213.697	-4.400	3.920
1077.000	213.881	-4.402	3.920
1078.000	213.967	-4.407	3.920
1079.000	214.210	-4.410	3.919
1080.000	214.318	-4.414	3.919
1081.000	214.591	-4.415	3.919
1082.000	214.650	-4.417	3.919
1083.000	214.905	-4.421	3.919
1084.000	215.014	-4.423	3.918
1085.000	215.247	-4.425	3.918
1086.000	215.343	-4.426	3.918
1087.000	215.548	-4.429	3.918
1088.000	215.742	-4.432	3.918
1089.000	215.930	-4.435	3.918
1090.000	216.089	-4.438	3.918
1091.000	216.199	-4.442	3.918
1092.000	216.454	-4.445	3.918
1093.000	216.549	-4.448	3.917
1094.000	216.787	-4.451	3.917
1095.000	216.875	-4.455	3.917
1096.000	217.176	-4.459	3.917
1097.000	217.274	-4.463	3.917
1098.000	217.467	-4.466	3.917
1099.000	217.577	-4.470	3.917
1100.000	217.810	-4.475	3.917
1101.000	218.010	-4.480	3.916
1102.000	218.140	-4.484	3.916
1103.000	218.351	-4.488	3.916
1104.000	218.472	-4.494	3.916
1105.000	218.725	-4.499	3.916
1106.000	218.779	-4.503	3.916
1107.000	219.028	-4.507	3.915
1108.000	219.165	-4.511	3.915
1109.000	219.425	-4.516	3.915
1110.000	219.533	-4.519	3.915
1111.000	219.712	-4.525	3.915
1112.000	219.878	-4.529	3.915
1113.000	220.072	-4.534	3.914
1114.000	220.246	-4.537	3.914
1115.000	220.351	-4.541	3.914
1116.000	220.611	-4.544	3.914
1117.000	220.733	-4.548	3.914
1118.000	220.992	-4.550	3.913
1119.000	221.026	-4.553	3.913
1120.000	221.312	-4.556	3.913
1121.000	221.425	-4.559	3.913
1122.000	221.659	-4.562	3.912
1123.000	221.760	-4.565	3.912
1124.000	221.983	-4.568	3.912
1125.000	222.186	-4.571	3.912
1126.000	222.316	-4.575	3.912
1127.000	222.472	-4.577	3.911
1128.000	222.613	-4.581	3.911
1129.000	222.886	-4.584	3.911
1130.000	222.968	-4.586	3.911
1131.000	223.204	-4.587	3.910
1132.000	223.317	-4.591	3.910
1133.000	223.551	-4.594	3.910
1134.000	223.657	-4.595	3.910
1135.000	223.835	-4.598	3.909
1136.000	224.001	-4.600	3.909
1137.000	224.216	-4.603	3.909
1138.000	224.405	-4.604	3.909
1139.000	224.515	-4.608	3.908
1140.000	224.708	-4.611	3.908
1141.000	224.821	-4.614	3.908
1142.000	225.095	-4.617	3.908
1143.000	225.143	-4.618	3.907
1144.000	225.424	-4.622	3.907
1145.000	225.534	-4.624	3.907
1146.000	225.803	-4.627	3.907
1147.000	225.846	-4.629	3.906
1148.000	226.051	-4.632	3.906
1149.000	226.212	-4.633	3.906
1150.000	226.418	-4.637	3.906
1151.000	226.564	-4.638	3.905
1152.000	226.696	-4.641	3.905
1153.000	226.946	-4.644	3.905
1154.000	227.045	-4.647	3.905
1155.000	227.255	-4.648	3.904
1156.000	227.311	-4.651	3.904
1157.000	227.615	-4.654	3.904
1158.000	227.739	-4.656	3.904
1159.000	227.929	-4.658	3.903
1160.000	228.068	-4.661	3.903
1161.000	228.263	-4.666	3.903
1162.000	228.440	-4.668	3.902
1163.000	228.557	-4.672	3.902
1164.000	228.756	-4.675	3.902
1165.000	228.886	-4.679	3.902
1166.000	229.159	-4.682	3.901
1167.000	229.226	-4.685	3.901
1168.000	229.448	-4.689	3.901
1169.000	229.547	-4.692	3.900
1170.000	229.825	-4.697	3.900
1171.000	229.924	-4.699	3.900
1172.000	230.124	-4.704	3.900
1173.000	230.277	-4.707	3.899
1174.000	230.511	-4.713	3.899
1175.000	230.640	-4.715	3.899
1176.000	230.741	-4.721	3.898
1177.000	230.985	-4.723	3.898
1178.000	231.112	-4.729	3.898
1179.000	231.363	-4.732	3.898
1180.000	231.407	-4.736	3.897
1181.000	231.715	-4.741	3.897
1182.000	231.792	-4.746	3.897
1183.000	232.028	-4.750	3.896
1184.000	232.104	-4.753	3.896
1185.000	232.356	-4.760	3.896
1186.000	232.520	-4.764	3.895
1187.000	232.693	-4.769	3.895
1188.000	232.866	-4.774	3.894
1189.000	233.005	-4.780	3.894
1190.000	233.225	-4.786	3.894
1191.000	233.338	-4.792	3.893
1192.000	233.561	-4.798	3.893
1193.000	233.669	-4.803	3.893
1194.000	233.950	-4.810	3.892
1195.000	234.084	-4.815	3.892
1196.000	234.238	-4.820	3.891
1197.000	234.353	-4.827	3.891
1198.000	234.578	-4.833	3.890
1199.000	234.776	-4.837	3.890
1200.000	234.908	-4.844	3.889
1201.000	235.113	-4.849	3.889
1202.000	235.282	-4.856	3.888
1203.000	235.498	-4.861	3.888
1204.000	235.537	-4.866	3.887
1205.000	235.794	-4.873	3.887
1206.000	235.914	-4.878	3.887
1207.000	236.201	-4.883	3.886
1208.000	236.241	-4.887	3.886
1209.000	236.502	-4.893	3.885
1210.000	236.640	-4.897	3.885
1211.000	236.826	-4.903	3.884
1212.000	236.959	-4.907	3.884
1213.000	237.119	-4.912	3.883
1214.000	237.365	-4.917	3.883
1215.000	237.494	-4.923	3.882
1216.000	237.736	-4.926	3.882
1217.000	237.757	-4.931	3.881
1218.000	238.037	-4.936	3.881
1219.000	238.147	-4.941	3.880
1220.000	238.383	-4.945	3.880
1221.000	238.486	-4.950	3.879
1222.000	238.730	-4.956	3.879
1223.000	238.892	-4.961	3.878
1224.000	239.029	-4.966	3.878
1225.000	239.197	-4.971	3.877
1226.000	239.358	-4.977	3.877
1227.000	239.603	-4.981	3.876
1228.000	239.681	-4.986	3.876
1229.000	239.918	-4.990	3.875
1230.000	240.041	-4.995	3.875
1231.000	240.299	-5.000	3.874
1232.000	240.362	-5.003	3.874
1233.000	240.580	-5.008	3.873
1234.000	240.722	-5.013	3.872
1235.000	240.949	-5.019	3.872
1236.000	241.077	-5.022	3.871
1237.000	241.255	-5.028	3.871
1238.000	241.437	-5.033	3.870
1239.000	241.562	-5.038	3.870
1240.000	241.798	-5.041	3.869
1241.000	241.853	-5.046	3.869
1242.000	242.150	-5.051	3.868
1243.000	242.247	-5.055	3.867
1244.000	242.532	-5.057	3.867
1245.000	242.558	-5.061	3.866
1246.000	242.802	-5.067	3.866
1247.000	242.932	-5.071	3.865
1248.000	243.157	-5.075	3.864
1249.000	243.288	-5.079	3.864
1250.000	243.452	-5.085	3.863
1251.000	243.689	-5.089	3.862
1252.000	243.782	-5.093	3.861
1253.000	243.972	-5.096	3.861
1254.000	244.078	-5.101	3.860
1255.000	244.369	-5.106	3.859
1256.000	244.474	-5.110	3.859
1257.000	244.690	-5.115	3.858
1258.000	244.814	-5.119	3.857
1259.000	245.031	-5.124	3.856
1260.000	245.175	-5.127	3.856
1261.000	245.325	-5.132	3.855
1262.000	245.495	-5.136	3.854
1263.000	245.674	-5.141	3.854
1264.000	245.898	-5.144	3.853
1265.000	245.974	-5.148	3.852
1266.000	246.207	-5.153	3.851
1267.000	246.316	-5.157	3.851
1268.000	246.597	-5.162	3.850
1269.000	246.670	-5.165	3.849
1270.000	246.912	-5.171	3.848
1271.000	247.036	-5.176	3.848
1272.000	247.291	-5.181	3.847
1273.000	247.392	-5.185	3.846
1274.000	247.547	-5.191	3.845
1275.000	247.762	-5.195	3.845
1276.000	247.928	-5.202	3.844
1277.000	248.126	-5.205	3.843
1278.000	248.207	-5.211	3.842
1279.000	248.522	-5.216	3.841
1280.000	248.585	-5.221	3.841
1281.000	248.833	-5.226	3.840
1282.000	248.894	-5.230	3.839
1283.000	249.162	-5.236	3.838
1284.000	249.322	-5.240	3.838
1285.000	249.521	-5.244	3.837
1286.000	249.654	-5.248	3.836
1287.000	249.815	-5.253	3.835
1288.000	250.026	-5.258	3.834
1289.000	250.138	-5.262	3.833
1290.000	250.350	-5.267	3.832
1291.000	250.465	-5.272	3.831
1292.000	250.754	-5.277	3.830
1293.000	250.845	-5.281	3.830
1294.000	251.033	-5.287	3.829
1295.000	251.151	-5.292	3.827
1296.000	251.385	-5.298	3.826
1297.000	251.532	-5.300	3.825
1298.000	251.704	-5.306	3.824
1299.000	251.884	-5.311	3.824
1300.000	252.067	-5.316	3.823
1301.000	252.257	-5.320	3.822
1302.000	252.311	-5.325	3.821
1303.000	252.576	-5.329	3.820
1304.000	252.695	-5.334	3.819
1305.000	252.966	-5.338	3.818
1306.000	253.015	-5.343	3.817
1307.000	253.292	-5.348	3.816
1308.000	253.402	-5.352	3.815
1309.000	253.627	-5.357	3.814
1310.000	253.717	-5.361	3.813
1311.000	253.919	-5.366	3.812
1312.000	254.110	-5.370	3.811
1313.000	254.277	-5.375	3.810
1314.000	254.483	-5.378	3.808
1315.000	254.539	-5.383	3.808
1316.000	254.815	-5.388	3.807
1317.000	254.893	-5.391	3.806
1318.000	255.126	-5.397	3.805
1319.000	255.235	-5.401	3.804
1320.000	255.500	-5.407	3.803
1321.000	255.643	-5.410	3.801
1322.000	255.781	-5.415	3.800
1323.000	255.934	-5.419	3.799
1324.000	256.112	-5.425	3.798
1325.000	256.327	-5.430	3.797
1326.000	256.402	-5.434	3.796
1327.000	256.633	-5.439	3.795
1328.000	256.763	-5.445	3.793
1329.000	257.029	-5.450	3.792
1330.000	257.072	-5.454	3.791
1331.000	257.298	-5.460	3.790
1332.000	257.432	-5.466	3.789
1333.000	257.663	-5.472	3.787
1334.000	257.782	-5.476	3.786
1335.000	257.967	-5.482	3.785
1336.000	258.138	-5.488	3.783
1337.000	258.276	-5.495	3.782
1338.000	258.464	-5.499	3.781
1339.000	258.566	-5.506	3.780
1340.000	258.845	-5.512	3.778
1341.000	258.943	-5.519	3.777
1342.000	259.204	-5.523	3.776
1343.000	259.238	-5.529	3.774
1344.000	259.507	-5.536	3.773
1345.000	259.616	-5.541	3.772
1346.000	259.840	-5.547	3.771
1347.000	259.960	-5.552	3.769
1348.000	260.173	-5.558	3.768
1349.000	260.379	-5.564	3.767
1350.000	260.482	-5.571	3.766
1351.000	260.657	-5.575	3.764
1352.000	260.759	-5.582	3.763
1353.000	261.052	-5.588	3.762
1354.000	261.133	-5.593	3.760
1355.000	261.381	-5.599	3.759
1356.000	261.488	-5.606	3.758
1357.000	261.738	-5.613	3.756
1358.000	261.832	-5.618	3.755
1359.000	262.005	-5.625	3.753
1360.000	262.178	-5.631	3.752
1361.000	262.371	-5.638	3.750
1362.000	262.569	-5.644	3.749
1363.000	262.665	-5.651	3.747
1364.000	262.882	-5.658	3.746
1365.000	262.991	-5.666	3.744
1366.000	263.256	-5.672	3.743
1367.000	263.317	-5.678	3.741
1368.000	263.570	-5.685	3.740
1369.000	263.685	-5.691	3.738
1370.000	263.939	-5.697	3.737
1371.000	263.995	-5.703	3.735
1372.000	264.198	-5.710	3.734
1373.000	264.373	-5.714	3.732
1374.000	264.565	-5.722	3.731
1375.000	264.728	-5.727	3.729
1376.000	264.855	-5.733	3.727
1377.000	265.116	-5.740	3.726
1378.000	265.191	-5.747	3.724
1379.000	265.410	-5.752	3.723
1380.000	265.496	-5.758	3.721
1381.000	265.786	-5.766	3.719
1382.000	265.897	-5.771	3.717
1383.000	266.090	-5.777	3.716
1384.000	266.237	-5.784	3.714
1385.000	266.424	-5.793	3.712
1386.000	266.608	-5.798	3.711
1387.000	266.713	-5.805	3.709
1388.000	266.907	-5.812	3.707
1389.000	267.049	-5.819	3.706
1390.000	267.300	-5.826	3.704
1391.000	267.401	-5.832	3.702
1392.000	267.605	-5.838	3.700
1393.000	267.698	-5.845	3.698
1394.000	267.976	-5.852	3.697
1395.000	268.059	-5.858	3.695
1396.000	268.265	-5.866	3.693
1397.000	268.431	-5.872	3.691
1398.000	268.644	-5.881	3.690
1399.000	268.775	-5.886	3.688
1400.000	268.880	-5.894	3.686
1401.000	269.116	-5.901	3.684
1402.000	269.248	-5.909	3.682
1403.000	269.497	-5.915	3.680
1404.000	269.544	-5.922	3.678
1405.000	269.833	-5.930	3.676
1406.000	269.927	-5.937	3.674
1407.000	270.157	-5.945	3.672
1408.000	270.236	-5.951	3.670
1409.000	270.474	-5.961	3.668
1410.000	270.645	-5.969	3.666
1411.000	270.819	-5.977	3.664
1412.000	270.988	-5.984	3.662
1413.000	271.109	-5.994	3.660
1414.000	271.340	-6.001	3.658
1415.000	271.432	-6.009	3.656
1416.000	271.670	-6.016	3.654
1417.000	271.775	-6.024	3.652
1418.000	272.050	-6.033	3.650
1419.000	272.158	-6.040	3.648
1420.000	272.334	-6.049	3.645
1421.000	272.456	-6.056	3.643
1422.000	272.681	-6.066	3.641
1423.000	272.860	-6.072	3.639
1424.000	272.992	-6.081	3.637
1425.000	273.178	-6.088	3.635
1426.000	273.341	-6.097	3.633
1427.000	273.581	-6.106	3.630
1428.000	273.632	-6.114	3.628
1429.000	273.882	-6.123	3.626
1430.000	274.006	-6.131	3.624
1431.000	274.263	-6.140	3.621
1432.000	274.337	-6.149	3.619
1433.000	274.573	-6.158	3.617
1434.000	274.699	-6.167	3.614
1435.000	274.910	-6.175	3.612
1436.000	275.035	-6.182	3.610
1437.000	275.192	-6.191	3.607
1438.000	275.427	-6.199	3.605
1439.000	275.550	-6.208	3.602
1440.000	275.787	-6.215	3.600
1441.000	275.850	-6.223	3.598
1442.000	276.119	-6.232	3.595
1443.000	276.226	-6.240	3.593
1444.000	276.450	-6.248	3.591
1445.000	276.541	-6.255	3.588
1446.000	276.799	-6.264	3.586
1447.000	276.967	-6.272	3.583
1448.000	277.104	-6.280	3.581
1449.000	277.243	-6.288	3.578
1450.000	277.421	-6.298	3.576
1451.000	277.652	-6.306	3.573
1452.000	277.741	-6.314	3.570
1453.000	277.975	-6.322	3.568
1454.000	278.095	-6.331	3.565
1455.000	278.348	-6.340	3.562
1456.000	278.426	-6.347	3.560
1457.000	278.638	-6.355	3.557
1458.000	278.777	-6.363	3.555
1459.000	279.012	-6.373	3.552
1460.000	279.157	-6.379	3.550
1461.000	279.299	-6.387	3.547
1462.000	279.474	-6.395	3.544
1463.000	279.614	-6.403	3.542
1464.000	279.837	-6.410	3.539
1465.000	279.902	-6.419	3.536
1466.000	280.199	-6.427	3.533
1467.000	280.287	-6.435	3.531
1468.000	280.556	-6.444	3.528
1469.000	280.588	-6.452	3.525
1470.000	280.815	-6.462	3.522
1471.000	280.971	-6.470	3.519
1472.000	281.180	-6.480	3.517
1473.000	281.307	-6.488	3.514
1474.000	281.473	-6.498	3.511
1475.000	281.698	-6.507	3.508
1476.000	281.804	-6.516	3.505
1477.000	282.015	-6.524	3.502
1478.000	282.102	-6.534	3.500
1479.000	282.381	-6.542	3.497
1480.000	282.494	-6.550	3.494
1481.000	282.697	-6.559	3.491
1482.000	282.823	-6.568	3.488
1483.000	283.033	-6.577	3.485
1484.000	283.179	-6.585	3.482
1485.000	283.321	-6.593	3.480
1486.000	283.491	-6.602	3.477
1487.000	283.673	-6.610	3.474
1488.000	283.898	-6.617	3.471
1489.000	283.974	-6.624	3.468
1490.000	284.192	-6.631	3.465
1491.000	284.296	-6.638	3.462
1492.000	284.563	-6.645	3.459
1493.000	284.617	-6.651	3.456
1494.000	284.859	-6.658	3.453
1495.000	284.995	-6.664	3.450
1496.000	285.251	-6.671	3.447
1497.000	285.330	-6.675	3.444
1498.000	285.487	-6.683	3.441
1499.000	285.685	-6.688	3.438
1500.000	285.846	-6.695	3.435
1501.000	286.043	-6.700	3.432
1502.000	286.144	-6.707	3.429
1503.000	286.430	-6.713	3.426
1504.000	286.491	-6.719	3.423
1505.000	286.717	-6.724	3.420
1506.000	286.785	-6.730	3.417
1507.000	287.061	-6.736	3.414
1508.000	287.206	-6.741	3.411
1509.000	287.406	-6.747	3.408
1510.000	287.543	-6.752	3.405
1511.000	287.695	-6.758	3.402
1512.000	287.898	-6.763	3.399
1513.000	288.002	-6.769	3.396
1514.000	288.220	-6.774	3.393
1515.000	288.349	-6.780	3.389
1516.000	288.619	-6.785	3.386
1517.000	288.700	-6.789	3.383
1518.000	288.898	-6.794	3.380
1519.000	289.004	-6.798	3.377
1520.000	289.258	-6.804	3.374
1521.000	289.408	-6.807	3.371
1522.000	289.573	-6.812	3.368
1523.000	289.746	-6.815	3.365
1524.000	289.922	-6.821	3.362
1525.000	290.113	-6.823	3.359
1526.000	290.169	-6.827	3.356
1527.000	290.456	-6.830	3.353
1528.000	290.561	-6.834	3.350
1529.000	290.832	-6.837	3.347
1530.000	290.881	-6.841	3.344
1531.000	291.145	-6.845	3.341
1532.000	291.255	-6.849	3.338
1533.000	291.481	-6.853	3.335
1534.000	291.572	-6.856	3.332
1535.000	291.779	-6.860	3.329
1536.000	291.972	-6.864	3.326
1537.000	292.131	-6.867	3.323
1538.000	292.304	-6.869	3.319
1539.000	292.405	-6.873	3.316
1540.000	292.682	-6.876	3.313
1541.000	292.764	-6.879	3.310
1542.000	292.978	-6.882	3.307
1543.000	293.080	-6.884	3.304
1544.000	293.340	-6.887	3.301
1545.000	293.490	-6.889	3.298
1546.000	293.634	-6.892	3.295
1547.000	293.781	-6.893	3.292
1548.000	293.964	-6.896	3.289
1549.000	294.178	-6.896	3.285
1550.000	294.280	-6.899	3.282
1551.000	294.496	-6.900	3.279
1552.000	294.630	-6.900	3.276
1553.000	294.887	-6.902	3.273
1554.000	294.929	-6.902	3.270
1555.000	295.172	-6.904	3.267
1556.000	295.302	-6.906	3.264
1557.000	295.570	-6.908	3.261
1558.000	295.660	-6.908	3.258
1559.000	295.855	-6.910	3.255
1560.000	296.000	-6.911	3.252
1561.000	296.184	-6.914	3.249
1562.000	296.357	-6.912	3.246
1563.000	296.466	-6.914	3.243
1564.000	296.734	-6.915	3.240
1565.000	296.838	-6.917	3.237
1566.000	297.103	-6.917	3.234
1567.000	297.129	-6.917	3.230
1568.000	297.386	-6.918	3.227
1569.000	297.493	-6.918	3.224
1570.000	297.728	-6.918	3.221
1571.000	297.835	-6.918	3.218
1572.000	298.047	-6.919	3.215
1573.000	298.241	-6.920	3.212
1574.000	298.357	-6.921	3.209
1575.000	298.501	-6.920	3.206
1576.000	298.644	-6.922	3.203
1577.000	298.917	-6.922	3.200
1578.000	299.015	-6.922	3.197
1579.000	299.225	-6.923	3.194
1580.000	299.344	-6.924	3.191
1581.000	299.569	-6.926	3.188
1582.000	299.680	-6.926	3.185
1583.000	299.853	-6.928	3.182
1584.000	300.003	-6.928	3.179
1585.000	300.223	-6.929	3.176
1586.000	300.404	-6.928	3.173
1587.000	300.521	-6.930	3.170
1588.000	300.716	-6.930	3.167
1589.000	300.844	-6.932	3.164
1590.000	301.095	-6.932	3.162
1591.000	301.143	-6.933	3.159
1592.000	301.406	-6.933	3.156
1593.000	301.518	-6.935	3.153
1594.000	301.796	-6.935	3.150
1595.000	301.836	-6.936	3.147
1596.000	302.039	-6.938	3.144
1597.000	302.206	-6.939	3.141
1598.000	302.391	-6.940	3.138
1599.000	302.538	-6.942	3.135
1600.000	302.682	-6.944	3.132
1601.000	302.947	-6.945	3.129
1602.000	303.030	-6.946	3.127
1603.000	303.234	-6.947	3.124
1604.000	303.309	-6.948	3.121
1605.000	303.602	-6.950	3.117
1606.000	303.702	-6.951	3.114
1607.000	303.908	-6.953	3.111
1608.000	304.049	-6.954	3.109
1609.000	304.236	-6.957	3.106
1610.000	304.402	-6.959	3.103
1611.000	304.535	-6.960	3.100
1612.000	304.718	-6.962	3.097
1613.000	304.885	-6.965	3.094
1614.000	305.135	-6.966	3.091
1615.000	305.221	-6.967	3.088
1616.000	305.425	-6.971	3.085
1617.000	305.534	-6.973	3.082
1618.000	305.783	-6.975	3.079
1619.000	305.881	-6.977	3.077
1620.000	306.107	-6.980	3.073
1621.000	306.246	-6.982	3.071
1622.000	306.485	-6.986	3.068
1623.000	306.598	-6.987	3.065
1624.000	306.729	-6.990	3.062
1625.000	306.958	-6.992	3.059
1626.000	307.091	-6.996	3.056
1627.000	307.331	-6.998	3.053
1628.000	307.397	-6.999	3.051
1629.000	307.685	-7.003	3.048
1630.000	307.764	-7.006	3.045
1631.000	307.983	-7.009	3.042
1632.000	308.080	-7.009	3.039
1633.000	308.316	-7.012	3.036
1634.000	308.476	-7.015	3.034
1635.000	308.661	-7.016	3.031
1636.000	308.803	-7.020	3.028
1637.000	308.960	-7.023	3.025
1638.000	309.179	-7.026	3.022
1639.000	309.284	-7.029	3.019
1640.000	309.519	-7.031	3.016
1641.000	309.608	-7.036	3.013
1642.000	309.898	-7.039	3.010
1643.000	309.973	-7.042	3.007
1644.000	310.170	-7.046	3.004
1645.000	310.287	-7.050	3.001
1646.000	310.517	-7.054	2.998
1647.000	310.680	-7.057	2.995
1648.000	310.823	-7.063	2.993
1649.000	311.040	-7.066	2.990
1650.000	311.161	-7.072	2.987
1651.000	311.397	-7.075	2.984
1652.000	311.443	-7.080	2.981
1653.000	311.705	-7.085	2.978
1654.000	311.819	-7.089	2.975
1655.000	312.080	-7.093	2.972
1656.000	312.158	-7.096	2.969
1657.000	312.381	-7.101	2.966
1658.000	312.505	-7.105	2.963
1659.000	312.707	-7.109	2.960
1660.000	312.850	-7.112	2.958
1661.000	313.019	-7.116	2.955
1662.000	313.234	-7.119	2.952
1663.000	313.402	-7.123	2.949
1664.000	313.574	-7.126	2.946
1665.000	313.653	-7.130	2.943
1666.000	313.924	-7.135	2.940
1667.000	314.036	-7.138	2.937
1668.000	314.246	-7.142	2.934
1669.000	314.352	-7.147	2.931
1670.000	314.614	-7.152	2.928
1671.000	314.739	-7.157	2.925
1672.000	314.886	-7.161	2.923
1673.000	315.045	-7.166	2.920
1674.000	315.226	-7.171	2.916
1675.000	315.457	-7.176	2.914
1676.000	315.544	-7.180	2.911
1677.000	315.798	-7.185	2.908
1678.000	315.865	-7.189	2.905
1679.000	316.135	-7.194	2.902
1680.000	316.197	-7.198	2.899
1681.000	316.437	-7.203	2.895
1682.000	316.571	-7.207	2.893
1683.000	316.802	-7.213	2.890
1684.000	316.947	-7.217	2.887
1685.000	317.071	-7.223	2.884
1686.000	317.254	-7.228	2.881
1687.000	317.417	-7.234	2.878
1688.000	317.646	-7.239	2.875
1689.000	317.702	-7.245	2.872
1690.000	317.988	-7.250	2.869
1691.000	318.105	-7.256	2.866
1692.000	318.329	-7.262	2.863
1693.000	318.389	-7.267	2.860
1694.000	318.627	-7.273	2.857
1695.000	318.787	-7.279	2.854
1696.000	318.977	-7.285	2.851
1697.000	319.098	-7.291	2.848
1698.000	319.295	-7.298	2.845
1699.000	319.495	-7.304	2.842
1700.000	319.619	-7.309	2.839
1701.000	319.800	-7.315	2.836
1702.000	319.914	-7.322	2.833
1703.000	320.192	-7.328	2.830
1704.000	320.293	-7.333	2.827
1705.000	320.519	-7.339	2.824
1706.000	320.610	-7.345	2.821
1707.000	320.839	-7.353	2.818
1708.000	320.977	-7.357	2.815
1709.000	321.133	-7.365	2.811
1710.000	321.306	-7.371	2.808
1711.000	321.493	-7.379	2.805
1712.000	321.724	-7.386	2.802
1713.000	321.782	-7.394	2.799
1714.000	322.004	-7.402	2.796
1715.000	322.121	-7.410	2.793
1716.000	322.387	-7.418	2.789
1717.000	322.436	-7.426	2.786
1718.000	322.683	-7.435	2.783
1719.000	322.835	-7.442	2.780
1720.000	323.048	-7.450	2.777
1721.000	323.128	-7.456	2.774
1722.000	323.318	-7.465	2.771
1723.000	323.532	-7.472	2.767
1724.000	323.691	-7.481	2.764
1725.000	323.887	-7.488	2.761
1726.000	323.981	-7.497	2.758
1727.000	324.232	-7.506	2.754
1728.000	324.303	-7.514	2.751
1729.000	324.552	-7.523	2.748
1730.000	324.644	-7.531	2.745
1731.000	324.901	-7.541	2.741
1732.000	325.021	-7.549	2.738
1733.000	325.221	-7.557	2.735
1734.000	325.338	-7.566	2.731
1735.000	325.506	-7.576	2.728
1736.000	325.729	-7.585	2.724
1737.000	325.839	-7.594	2.721
1738.000	326.049	-7.603	2.718
1739.000	326.162	-7.613	2.715
1740.000	326.440	-7.622	2.711
1741.000	326.495	-7.630	2.708
1742.000	326.701	-7.640	2.705
1743.000	326.836	-7.649	2.701
1744.000	327.096	-7.659	2.698
1745.000	327.205	-7.666	2.694
1746.000	327.377	-7.675	2.691
1747.000	327.551	-7.684	2.688
1748.000	327.718	-7.694	2.684
1749.000	327.913	-7.702	2.681
1750.000	327.991	-7.712	2.677
1751.000	328.251	-7.721	2.674
1752.000	328.362	-7.732	2.671
1753.000	328.602	-7.740	2.667
1754.000	328.674	-7.751	2.663
1755.000	328.911	-7.762	2.660
1756.000	329.028	-7.772	2.656
1757.000	329.242	-7.782	2.653
1758.000	329.346	-7.792	2.649
1759.000	329.562	-7.804	2.646
1760.000	329.748	-7.814	2.642
1761.000	329.923	-7.826	2.639
1762.000	330.060	-7.835	2.635
1763.000	330.164	-7.847	2.631
1764.000	330.421	-7.857	2.628
1765.000	330.512	-7.868	2.624
1766.000	330.749	-7.878	2.621
1767.000	330.856	-7.889	2.617
1768.000	331.130	-7.901	2.613
1769.000	331.217	-7.911	2.609
1770.000	331.385	-7.923	2.606
1771.000	331.519	-7.934	2.602
1772.000	331.729	-7.946	2.598
1773.000	331.928	-7.956	2.594
1774.000	332.020	-7.968	2.591
1775.000	332.274	-7.978	2.587
1776.000	332.363	-7.991	2.583
1777.000	332.615	-8.002	2.579
1778.000	332.658	-8.013	2.575
1779.000	332.915	-8.026	2.571
1780.000	333.047	-8.038	2.568
1781.000	333.289	-8.052	2.564
1782.000	333.394	-8.062	2.560
1783.000	333.559	-8.076	2.556
1784.000	333.725	-8.087	2.552
1785.000	333.906	-8.099	2.548
1786.000	334.065	-8.111	2.544
1787.000	334.199	-8.126	2.540
1788.000	334.438	-8.138	2.536
1789.000	334.585	-8.152	2.532
1790.000	334.761	-8.166	2.528
1791.000	334.839	-8.182	2.524
1792.000	335.112	-8.196	2.520
1793.000	335.251	-8.212	2.516
1794.000	335.465	-8.227	2.511
1795.000	335.556	-8.243	2.507
1796.000	335.800	-8.260	2.503
1797.000	335.963	-8.276	2.499
1798.000	336.083	-8.292	2.494
1799.000	336.273	-8.307	2.490
1800.000	336.417	-8.325	2.486
1801.000	336.674	-8.339	2.481
1802.000	336.761	-8.354	2.477
1803.000	336.989	-8.370	2.473
1804.000	337.080	-8.387	2.468
1805.000	337.335	-8.402	2.464
1806.000	337.433	-8.417	2.460
1807.000	337.620	-8.435	2.455
1808.000	337.792	-8.451	2.451
1809.000	338.015	-8.467	2.446
1810.000	338.167	-8.484	2.442
1811.000	338.275	-8.501	2.437
1812.000	338.503	-8.517	2.433
1813.000	338.618	-8.535	2.428
1814.000	338.869	-8.549	2.424
1815.000	338.915	-8.567	2.419
1816.000	339.221	-8.585	2.414
1817.000	339.309	-8.602	2.409
1818.000	339.520	-8.620	2.405
1819.000	339.609	-8.638	2.400
1820.000	339.835	-8.657	2.395
1821.000	339.995	-8.674	2.390
1822.000	340.192	-8.692	2.385
1823.000	340.359	-8.708	2.381
1824.000	340.481	-8.727	2.376
1825.000	340.716	-8.744	2.371
1826.000	340.803	-8.761	2.366
1827.000	341.018	-8.777	2.361
1828.000	341.125	-8.793	2.356
1829.000	341.404	-8.810	2.351
1830.000	341.527	-8.826	2.346
1831.000	341.677	-8.844	2.341
1832.000	341.814	-8.860	2.336
1833.000	342.025	-8.878	2.331
1834.000	342.196	-8.895	2.325
1835.000	342.305	-8.913	2.320
1836.000	342.527	-8.931	2.315
1837.000	342.671	-8.950	2.309
1838.000	342.902	-8.967	2.304
1839.000	342.940	-8.985	2.298
1840.000	343.188	-9.004	2.293
1841.000	343.310	-9.021	2.288
1842.000	343.561	-9.039	2.282
1843.000	343.626	-9.057	2.277
1844.000	343.863	-9.076	2.271
1845.000	343.997	-9.094	2.266
1846.000	344.182	-9.113	2.260
1847.000	344.321	-9.131	2.255
1848.000	344.480	-9.150	2.249
1849.000	344.712	-9.169	2.243
1850.000	344.823	-9.189	2.238
1851.000	345.052	-9.207	2.232
1852.000	345.120	-9.226	2.226
1853.000	345.387	-9.246	2.220
1854.000	345.492	-9.264	2.214
1855.000	345.709	-9.283	2.209
1856.000	345.818	-9.301	2.203
1857.000	346.034	-9.321	2.197
1858.000	346.227	-9.340	2.191
1859.000	346.344	-9.360	2.185
1860.000	346.496	-9.378	2.179
1861.000	346.665	-9.399	2.173
1862.000	346.904	-9.418	2.166
1863.000	346.976	-9.437	2.160
1864.000	347.214	-9.456	2.154
1865.000	347.340	-9.475	2.147
1866.000	347.571	-9.495	2.141
1867.000	347.637	-9.513	2.135
1868.000	347.860	-9.532	2.128
1869.000	348.009	-9.552	2.122
1870.000	348.227	-9.571	2.116
1871.000	348.365	-9.589	2.109
1872.000	348.528	-9.610	2.103
1873.000	348.711	-9.629	2.096
1874.000	348.833	-9.649	2.090
1875.000	349.055	-9.668	2.083
1876.000	349.129	-9.688	2.076
1877.000	349.398	-9.708	2.070
1878.000	349.526	-9.726	2.063
1879.000	349.768	-9.746	2.056
1880.000	349.819	-9.765	2.050
1881.000	350.040	-9.784	2.043
1882.000	350.200	-9.803	2.036
1883.000	350.394	-9.820	2.029
1884.000	350.547	-9.837	2.022
1885.000	350.712	-9.855	2.016
1886.000	350.939	-9.872	2.009
1887.000	351.031	-9.889	2.002
1888.000	351.232	-9.905	1.995
1889.000	351.329	-9.922	1.988
1890.000	351.614	-9.938	1.981
1891.000	351.716	-9.953	1.974
1892.000	351.927	-9.970	1.967
1893.000	352.066	-9.985	1.960
1894.000	352.269	-10.002	1.953
1895.000	352.418	-10.016	1.946
1896.000	352.562	-10.031	1.938
1897.000	352.755	-10.046	1.931
1898.000	352.919	-10.061	1.924
1899.000	353.144	-10.075	1.917
1900.000	353.234	-10.090	1.909
1901.000	353.455	-10.104	1.902
1902.000	353.550	-10.118	1.895
1903.000	353.820	-10.131	1.887
1904.000	353.884	-10.144	1.880
1905.000	354.132	-10.157	1.872
1906.000	354.270	-10.168	1.865
1907.000	354.512	-10.180	1.858
1908.000	354.599	-10.190	1.850
1909.000	354.763	-10.202	1.843
1910.000	354.983	-10.211	1.835
1911.000	355.126	-10.221	1.828
1912.000	355.323	-10.229	1.820
1913.000	355.420	-10.237	1.813
1914.000	355.688	-10.246	1.805
1915.000	355.774	-10.254	1.798
1916.000	355.995	-10.261	1.790
1917.000	356.090	-10.267	1.782
1918.000	356.348	-10.274	1.775
1919.000	356.506	-10.279	1.767
1920.000	356.684	-10.284	1.760
1921.000	356.826	-10.288	1.752
1922.000	356.984	-10.293	1.745
1923.000	357.188	-10.296	1.737
1924.000	357.297	-10.299	1.730
1925.000	357.519	-10.301	1.722
1926.000	357.637	-10.304	1.715
1927.000	357.927	-10.306	1.707
1928.000	357.971	-10.305	1.700
1929.000	358.181	-10.306	1.692
1930.000	358.302	-10.306	1.685
1931.000	358.553	-10.305	1.677
1932.000	358.658	-10.300	1.670
1933.000	358.841	-10.298	1.662
1934.000	359.051	-10.293	1.655
1935.000	359.198	-10.289	1.647
1936.000	359.379	-10.282	1.640
1937.000	359.461	-10.276	1.632
1938.000	359.731	-10.269	1.625
1939.000	359.825	-10.262	1.617
1940.000	360.081	-10.252	1.610
1941.000	360.162	-10.243	1.602
1942.000	360.396	-10.234	1.595
1943.000	360.516	-10.223	1.587
1944.000	360.720	-10.211	1.580
1945.000	360.854	-10.197	1.573
1946.000	361.045	-10.185	1.566
1947.000	361.229	-10.171	1.558
1948.000	361.400	-10.156	1.551
1949.000	361.552	-10.139	1.544
1950.000	361.660	-10.124	1.537
1951.000	361.920	-10.106	1.530
1952.000	362.026	-10.088	1.523
1953.000	362.252	-10.069	1.516
1954.000	362.355	-10.050	1.509
1955.000	362.635	-10.031	1.502
1956.000	362.727	-10.009	1.495
1957.000	362.884	-9.988	1.488
1958.000	363.046	-9.964	1.481
1959.000	363.250	-9.942	1.475
1960.000	363.432	-9.916	1.468
1961.000	363.531	-9.891	1.461
1962.000	363.785	-9.864	1.454
1963.000	363.878	-9.837	1.448
1964.000	364.129	-9.809	1.441
1965.000	364.187	-9.778	1.435
1966.000	364.456	-9.749	1.428
1967.000	364.564	-9.717	1.422
1968.000	364.816	-9.685	1.415
1969.000	364.907	-9.652	1.409
1970.000	365.095	-9.620	1.403
1971.000	365.263	-9.586	1.397
1972.000	365.432	-9.553	1.391
1973.000	365.600	-9.517	1.385
1974.000	365.734	-9.482	1.379
1975.000	365.982	-9.445	1.373
1976.000	366.084	-9.408	1.367
1977.000	366.287	-9.368	1.361
1978.000	366.364	-9.328	1.356
1979.000	366.632	-9.289	1.350
1980.000	366.762	-9.248	1.344
1981.000	366.957	-9.206	1.339
1982.000	367.087	-9.164	1.333
1983.000	367.299	-9.122	1.328
1984.000	367.461	-9.078	1.322
1985.000	367.582	-9.034	1.317
1986.000	367.760	-8.989	1.312
1987.000	367.908	-8.946	1.306
1988.000	368.158	-8.899	1.301
1989.000	368.224	-8.853	1.296
1990.000	368.479	-8.807	1.291
1991.000	368.564	-8.761	1.287
1992.000	368.802	-8.714	1.282
1993.000	368.890	-8.666	1.277
1994.000	369.114	-8.620	1.273
1995.000	369.273	-8.571	1.268
1996.000	369.471	-8.524	1.264
1997.000	369.647	-8.473	1.259
1998.000	369.720	-8.425	1.255
1999.000	369.947	-8.375	1.251
2000.000	370.076	-8.326	1.247
2001.000	370.324	-8.274	1.243
2002.000	370.370	-8.224	1.239
2003.000	370.652	-8.173	1.235
2004.000	370.780	-8.124	1.231
2005.000	370.984	-8.072	1.227
2006.000	371.063	-8.020	1.223
2007.000	371.315	-7.969	1.220
2008.000	371.475	-7.917	1.216
2009.000	371.656	-7.865	1.213
2010.000	371.810	-7.812	1.209
2011.000	371.948	-7.762	1.206
2012.000	372.164	-7.710	1.203
2013.000	372.262	-7.658	1.199
2014.000	372.481	-7.606	1.196
2015.000	372.591	-7.557	1.193
2016.000	372.863	-7.507	1.190
2017.000	372.985	-7.456	1.187
2018.000	373.152	-7.408	1.184
2019.000	373.285	-7.360	1.182
2020.000	373.513	-7.313	1.179
2021.000	373.677	-7.264	1.177
2022.000	373.800	-7.217	1.174
2023.000	373.995	-7.170	1.172
2024.000	374.161	-7.124	1.169
2025.000	374.368	-7.077	1.167
2026.000	374.424	-7.031	1.165
2027.000	374.677	-6.988	1.163
2028.000	374.788	-6.944	1.160
2029.000	375.030	-6.900	1.158
2030.000	375.093	-6.856	1.156
2031.000	375.337	-6.815	1.154
2032.000	375.478	-6.774	1.152
2033.000	375.662	-6.734	1.150
2034.000	375.775	-6.694	1.149
2035.000	375.952	-6.656	1.147
2036.000	376.162	-6.617	1.145
2037.000	376.299	-6.580	1.144
2038.000	376.506	-6.542	1.142
2039.000	376.566	-6.505	1.141
2040.000	376.832	-6.469	1.139
2041.000	376.933	-6.432	1.138
2042.000	377.158	-6.395	1.137
2043.000	377.239	-6.359	1.135
2044.000	377.488	-6.325	1.134
2045.000	377.653	-6.289	1.132
2046.000	377.782	-6.255	1.131
2047.000	377.915	-6.222	1.130
2048.000	378.071	-6.191	1.129
2049.000	378.315	-6.159	1.128
2050.000	378.394	-6.127	1.127
2051.000	378.616	-6.096	1.125
2052.000	378.746	-6.067	1.124
2053.000	378.992	-6.037	1.123
2054.000	379.043	-6.007	1.122
2055.000	379.258	-5.979	1.121
2056.000	379.414	-5.951	1.120
2057.000	379.637	-5.924	1.119
2058.000	379.762	-5.896	1.118
2059.000	379.922	-5.870	1.117
2060.000	380.095	-5.844	1.117
2061.000	380.260	-5.819	1.116
2062.000	380.449	-5.792	1.115
2063.000	380.524	-5.768	1.114
2064.000	380.801	-5.745	1.113
2065.000	380.898	-5.723	1.113
2066.000	381.158	-5.699	1.112
2067.000	381.205	-5.678	1.111
2068.000	381.450	-5.658	1.111
2069.000	381.573	-5.638	1.110
2070.000	381.803	-5.618	1.109
2071.000	381.912	-5.599	1.108
2072.000	382.087	-5.582	1.108
2073.000	382.312	-5.564	1.107
2074.000	382.425	-5.547	1.106
2075.000	382.598	-5.530	1.106
2076.000	382.710	-5.516	1.105
2077.000	382.984	-5.502	1.105
2078.000	383.081	-5.487	1.104
2079.000	383.294	-5.473	1.103
2080.000	383.421	-5.459	1.103
2081.000	383.660	-5.447	1.102
2082.000	383.776	-5.433	1.102
2083.000	383.940	-5.421	1.101
2084.000	384.116	-5.410	1.100
2085.000	384.281	-5.399	1.100
2086.000	384.488	-5.386	1.099
2087.000	384.591	-5.378	1.099
2088.000	384.797	-5.369	1.098
2089.000	384.904	-5.360	1.098
2090.000	385.196	-5.351	1.097
2091.000	385.236	-5.342	1.097
2092.000	385.488	-5.336	1.096
2093.000	385.642	-5.329	1.096
2094.000	385.876	-5.323	1.095
2095.000	385.937	-5.315	1.095
2096.000	386.130	-5.309	1.094
2097.000	386.322	-5.303	1.093
2098.000	386.494	-5.297	1.093
2099.000	386.661	-5.290	1.092
2100.000	386.790	-5.284	1.091
2101.000	387.039	-5.277	1.091
2102.000	387.122	-5.272	1.090
2103.000	387.334	-5.266	1.090
2104.000	387.426	-5.260	1.089
2105.000	387.704	-5.255	1.089
2106.000	387.825	-5.250	1.089
2107.000	388.042	-5.245	1.088
2108.000	388.127	-5.240	1.088
2109.000	388.324	-5.236	1.087
2110.000	388.510	-5.232	1.087
2111.000	388.652	-5.226	1.086
2112.000	388.817	-5.220	1.086
2113.000	388.968	-5.217	1.085
2114.000	389.249	-5.213	1.085
2115.000	389.282	-5.207	1.084
2116.000	389.502	-5.202	1.084
2117.000	389.617	-5.200	1.083
2118.000	389.890	-5.197	1.083
2119.000	389.979	-5.191	1.083
2120.000	390.164	-5.188	1.082
2121.000	390.332	-5.185	1.082
2122.000	390.511	-5.183	1.081
2123.000	390.650	-5.179	1.081
2124.000	390.779	-5.177	1.081
2125.000	390.995	-5.174	1.080
2126.000	391.129	-5.173	1.080
2127.000	391.372	-5.169	1.079
2128.000	391.422	-5.166	1.079
2129.000	391.672	-5.165	1.078
2130.000	391.780	-5.162	1.078
2131.000	392.034	-5.160	1.077
2132.000	392.090	-5.157	1.077
2133.000	392.332	-5.155	1.076
2134.000	392.482	-5.153	1.076
2135.000	392.697	-5.151	1.076
2136.000	392.788	-5.149	1.075
2137.000	392.950	-5.148	1.075
2138.000	393.158	-5.146	1.074
2139.000	393.295	-5.145	1.074
2140.000	393.497	-5.142	1.074
2141.000	393.581	-5.142	1.073
2142.000	393.885	-5.140	1.073
2143.000	393.959	-5.138	1.072
2144.000	394.149	-5.137	1.072
2145.000	394.243	-5.136	1.071
2146.000	394.479	-5.136	1.071
2147.000	394.647	-5.134	1.071
2148.000	394.789	-5.133	1.070
2149.000	394.959	-5.131	1.070
2150.000	395.112	-5.130	1.070
2151.000	395.320	-5.129	1.069
2152.000	395.387	-5.127	1.069
2153.000	395.629	-5.126	1.068
2154.000	395.750	-5.126	1.068
2155.000	396.007	-5.125	1.067
2156.000	396.098	-5.123	1.067
2157.000	396.286	-5.124	1.066
2158.000	396.396	-5.124	1.066
2159.000	396.623	-5.125	1.066
2160.000	396.734	-5.124	1.065
2161.000	396.903	-5.126	1.065
2162.000	397.097	-5.125	1.065
2163.000	397.275	-5.127	1.064
2164.000	397.435	-5.127	1.064
2165.000	397.520	-5.128	1.063
2166.000	397.798	-5.127	1.063
2167.000	397.910	-5.128	1.062
2168.000	398.136	-5.127	1.062
2169.000	398.208	-5.127	1.061
2170.000	398.453	-5.128	1.061
2171.000	398.564	-5.128	1.060
2172.000	398.762	-5.129	1.060
2173.000	398.888	-5.131	1.060
2174.000	399.085	-5.133	1.059
2175.000	399.270	-5.134	1.059
2176.000	399.438	-5.135	1.058
2177.000	399.583	-5.136	1.058
2178.000	399.693	-5.139	1.057
2179.000	399.957	-5.140	1.057
2180.000	400.061	-5.141	1.056
2181.000	400.265	-5.143	1.056
2182.000	400.379	-5.146	1.056
2183.000	400.642	-5.148	1.055
2184.000	400.733	-5.150	1.055
2185.000	400.887	-5.152	1.054
2186.000	401.055	-5.154	1.054
2187.000	401.254	-5.158	1.054
2188.000	401.444	-5.160	1.053
2189.000	401.544	-5.164	1.053
2190.000	401.777	-5.167	1.053
2191.000	401.882	-5.171	1.052
2192.000	402.139	-5.173	1.052
2193.000	402.172	-5.176	1.051
2194.000	402.444	-5.180	1.051
2195.000	402.563	-5.183	1.051
2196.000	402.812	-5.186	1.050
2197.000	402.908	-5.188	1.050
2198.000	403.072	-5.191	1.049
2199.000	403.249	-5.194	1.049
2200.000	403.428	-5.198	1.048
2201.000	403.585	-5.200	1.048
2202.000	403.721	-5.203	1.048
2203.000	403.965	-5.206	1.047
2204.000	404.097	-5.209	1.047
2205.000	404.273	-5.212	1.046
2206.000	404.363	-5.215	1.046
2207.000	404.633	-5.218	1.046
2208.000	404.747	-5.220	1.045
2209.000	404.945	-5.222	1.045
2210.000	405.071	-5.225	1.044
2211.000	405.285	-5.229	1.044
2212.000	405.444	-5.233	1.043
2213.000	405.578	-5.237	1.043
2214.000	405.753	-5.242	1.043
2215.000	405.911	-5.247	1.042
2216.000	406.176	-5.252	1.042
2217.000	406.229	-5.257	1.041
2218.000	406.507	-5.261	1.041
2219.000	406.571	-5.266	1.040
2220.000	406.822	-5.271	1.040
2221.000	406.899	-5.274	1.039
2222.000	407.105	-5.279	1.039
2223.000	407.261	-5.284	1.038
2224.000	407.463	-5.288	1.038
2225.000	407.635	-5.291	1.037
2226.000	407.736	-5.297	1.037
2227.000	407.925	-5.302	1.036
2228.000	408.085	-5.308	1.036
2229.000	408.320	-5.312	1.036
2230.000	408.379	-5.318	1.035
2231.000	408.670	-5.322	1.035
2232.000	408.760	-5.329	1.034
2233.000	408.972	-5.334	1.034
2234.000	409.040	-5.339	1.034
2235.000	409.275	-5.344	1.033
2236.000	409.423	-5.349	1.033
2237.000	409.626	-5.353	1.033
2238.000	409.767	-5.356	1.032
2239.000	409.928	-5.362	1.032
2240.000	410.131	-5.365	1.031
2241.000	410.268	-5.370	1.031
2242.000	410.469	-5.373	1.030
2243.000	410.563	-5.378	1.030
2244.000	410.849	-5.382	1.030
2245.000	410.958	-5.386	1.029
2246.000	411.141	-5.392	1.029
2247.000	411.236	-5.397	1.028
2248.000	411.464	-5.403	1.028
2249.000	411.626	-5.408	1.027
2250.000	411.781	-5.413	1.027
2251.000	411.958	-5.420	1.026
2252.000	412.149	-5.427	1.026
2253.000	412.353	-5.434	1.025
2254.000	412.404	-5.440	1.025
2255.000	412.661	-5.446	1.024
2256.000	412.780	-5.453	1.024
2257.000	413.041	-5.458	1.024
2258.000	413.098	-5.465	1.023
2259.000	413.352	-5.471	1.023
2260.000	413.468	-5.478	1.022
2261.000	413.685	-5.484	1.022
2262.000	413.799	-5.489	1.022
2263.000	413.991	-5.497	1.021
2264.000	414.202	-5.501	1.021
2265.000	414.354	-5.508	1.020
2266.000	414.568	-5.513	1.020
2267.000	414.641	-5.519	1.020
2268.000	414.902	-5.525	1.019
2269.000	415.008	-5.530	1.019
2270.000	415.237	-5.536	1.018
2271.000	415.332	-5.541	1.018
2272.000	415.588	-5.547	1.018
2273.000	415.746	-5.551	1.017
2274.000	415.896	-5.557	1.017
2275.000	416.023	-5.562	1.016
2276.000	416.224	-5.568	1.016
2277.000	416.436	-5.573	1.015
2278.000	416.567	-5.578	1.015
2279.000	416.759	-5.582	1.014
2280.000	416.904	-5.587	1.014
2281.000	417.131	-5.591	1.013
2282.000	417.197	-5.594	1.013
2283.000	417.421	-5.600	1.013
2284.000	417.547	-5.604	1.012
2285.000	417.792	-5.609	1.012
2286.000	417.890	-5.611	1.011
2287.000	418.102	-5.616	1.011
2288.000	418.246	-5.620	1.011
2289.000	418.417	-5.625	1.010
2290.000	418.607	-5.628	1.010
2291.000	418.709	-5.633	1.009
2292.000	418.950	-5.638	1.009
2293.000	419.066	-5.642	1.009
2294.000	419.306	-5.647	1.008
2295.000	419.343	-5.652	1.008
2296.000	419.596	-5.658	1.007
2297.000	419.711	-5.663	1.007
2298.000	419.941	-5.667	1.006
2299.000	420.046	-5.672	1.006
2300.000	420.268	-5.677	1.006
2301.000	420.405	-5.681	1.005
2302.000	420.582	-5.684	1.005
2303.000	420.730	-5.687	1.004
2304.000	420.874	-5.691	1.003
2305.000	421.118	-5.695	1.003
2306.000	421.222	-5.698	1.003
2307.000	421.457	-5.702	1.002
2308.000	421.523	-5.707	1.002
2309.000	421.769	-5.712	1.002
2310.000	421.865	-5.716	1.001
2311.000	422.082	-5.721	1.001
2312.000	422.214	-5.726	1.000
2313.000	422.433	-5.732	1.000
2314.000	422.640	-5.736	0.999
2315.000	422.728	-5.740	0.999
2316.000	422.898	-5.745	0.999
2317.000	423.037	-5.752	0.998
2318.000	423.283	-5.756	0.997
2319.000	423.343	-5.762	0.997
2320.000	423.589	-5.767	0.996
2321.000	423.710	-5.773	0.996
2322.000	423.952	-5.780	0.995
2323.000	424.009	-5.785	0.995
2324.000	424.229	-5.791	0.994
2325.000	424.382	-5.797	0.994
2326.000	424.603	-5.803	0.994
2327.000	424.741	-5.808	0.993
2328.000	424.890	-5.814	0.993
2329.000	425.092	-5.819	0.992
2330.000	425.203	-5.826	0.992
2331.000	425.414	-5.831	0.992
2332.000	425.488	-5.837	0.991
2333.000	425.778	-5.844	0.991
2334.000	425.872	-5.850	0.990
2335.000	426.099	-5.855	0.990
2336.000	426.162	-5.861	0.990
2337.000	426.401	-5.869	0.989
2338.000	426.538	-5.875	0.989
2339.000	426.732	-5.882	0.988
2340.000	426.876	-5.888	0.988
2341.000	427.048	-5.896	0.988
2342.000	427.296	-5.903	0.987
2343.000	427.363	-5.910	0.987
2344.000	427.564	-5.917	0.986
2345.000	427.679	-5.924	0.986
2346.000	427.947	-5.933	0.986
2347.000	428.037	-5.939	0.985
2348.000	428.249	-5.946	0.985
2349.000	428.410	-5.953	0.984
2350.000	428.620	-5.961	0.984
2351.000	428.746	-5.966	0.983
2352.000	428.898	-5.974	0.983
2353.000	429.100	-5.981	0.983
2354.000	429.252	-5.990	0.982
2355.000	429.486	-5.996	0.982
2356.000	429.527	-6.005	0.982
2357.000	429.790	-6.012	0.981
2358.000	429.892	-6.020	0.981
2359.000	430.143	-6.027	0.980
2360.000	430.204	-6.034	0.980
2361.000	430.466	-6.041	0.980
2362.000	430.614	-6.048	0.979
2363.000	430.831	-6.055	0.979
2364.000	430.925	-6.062	0.978
2365.000	431.097	-6.070	0.978
2366.000	431.312	-6.076	0.978
2367.000	431.446	-6.083	0.977
2368.000	431.643	-6.090	0.977
2369.000	431.762	-6.097	0.977
2370.000	432.004	-6.104	0.976
2371.000	432.088	-6.110	0.976
2372.000	432.308	-6.118	0.976
2373.000	432.424	-6.126	0.975
2374.000	432.670	-6.133	0.975
2375.000	432.810	-6.141	0.975
2376.000	432.991	-6.149	0.974
2377.000	433.124	-6.156	0.974
2378.000	433.298	-6.165	0.973
2379.000	433.502	-6.172	0.973
2380.000	433.614	-6.180	0.973
2381.000	433.830	-6.186	0.972
2382.000	433.942	-6.194	0.972
2383.000	434.217	-6.200	0.971
2384.000	434.243	-6.206	0.971
2385.000	434.477	-6.213	0.971
2386.000	434.598	-6.220	0.970
2387.000	434.844	-6.227	0.970
2388.000	434.944	-6.234	0.970
2389.000	435.149	-6.244	0.969
2390.000	435.350	-6.250	0.969
2391.000	435.474	-6.258	0.969
2392.000	435.637	-6.265	0.968
2393.000	435.737	-6.274	0.968
2394.000	436.008	-6.282	0.967
2395.000	436.109	-6.290	0.967
2396.000	436.322	-6.299	0.967
2397.000	436.423	-6.307	0.966
2398.000	436.663	-6.317	0.966
2399.000	436.779	-6.325	0.966
2400.000	436.975	-6.333	0.965
2401.000	437.081	-6.341	0.965
2402.000	437.293	-6.351	0.965
2403.000	437.479	-6.358	0.964
2404.000	437.606	-6.368	0.964
2405.000	437.756	-6.377	0.963
2406.000	437.877	-6.387	0.963
2407.000	438.146	-6.396	0.963
2408.000	438.216	-6.404	0.963
2409.000	438.452	-6.413	0.962
2410.000	438.582	-6.423	0.962
2411.000	438.817	-6.434	0.961
2412.000	438.895	-6.443	0.961
2413.000	439.075	-6.455	0.961
2414.000	439.238	-6.466	0.960
2415.000	439.424	-6.478	0.960
2416.000	439.589	-6.488	0.959
2417.000	439.711	-6.500	0.959
2418.000	439.935	-6.513	0.958
2419.000	440.026	-6.527	0.958
2420.000	440.259	-6.539	0.958
2421.000	440.319	-6.553	0.958
2422.000	440.592	-6.567	0.957
2423.000	440.714	-6.581	0.957
2424.000	440.945	-6.594	0.956
2425.000	441.026	-6.606	0.956
2426.000	441.213	-6.620	0.956
2427.000	441.380	-6.633	0.955
2428.000	441.550	-6.647	0.955
2429.000	441.707	-6.659	0.955
2430.000	441.852	-6.673	0.955
2431.000	442.108	-6.686	0.954
2432.000	442.168	-6.698	0.954
2433.000	442.383	-6.710	0.954
2434.000	442.471	-6.723	0.953
2435.000	442.749	-6.736	0.953
2436.000	442.859	-6.748	0.953
2437.000	443.051	-6.762	0.952
2438.000	443.200	-6.775	0.952
2439.000	443.391	-6.790	0.952
2440.000	443.547	-6.803	0.951
2441.000	443.666	-6.816	0.951
2442.000	443.871	-6.829	0.951
2443.000	444.016	-6.844	0.951
2444.000	444.248	-6.857	0.950
2445.000	444.323	-6.870	0.950
2446.000	444.564	-6.884	0.949
2447.000	444.658	-6.898	0.949
2448.000	444.930	-6.912	0.949
2449.000	445.000	-6.926	0.948
2450.000	445.239	-6.941	0.948
2451.000	445.380	-6.954	0.948
2452.000	445.602	-6.970	0.948
2453.000	445.701	-6.982	0.948
2454.000	445.855	-6.998	0.947
2455.000	446.074	-7.011	0.947
2456.000	446.212	-7.025	0.947
2457.000	446.427	-7.037	0.946
2458.000	446.517	-7.050	0.946
2459.000	446.790	-7.063	0.946
2460.000	446.883	-7.075	0.946
2461.000	447.097	-7.087	0.945
2462.000	447.195	-7.099	0.945
2463.000	447.437	-7.112	0.945
2464.000	447.595	-7.124	0.944
2465.000	447.763	-7.137	0.944
2466.000	447.892	-7.150	0.944
2467.000	448.054	-7.164	0.943
2468.000	448.277	-7.176	0.943
2469.000	448.361	-7.189	0.943
2470.000	448.585	-7.204	0.943
2471.000	448.688	-7.217	0.942
2472.000	448.980	-7.231	0.942
2473.000	449.027	-7.245	0.942
2474.000	449.260	-7.260	0.941
2475.000	449.390	-7.275	0.941
2476.000	449.615	-7.291	0.941
2477.000	449.737	-7.306	0.940
2478.000	449.888	-7.323	0.940
2479.000	450.113	-7.339	0.940
2480.000	450.229	-7.356	0.939
2481.000	450.426	-7.372	0.939
2482.000	450.497	-7.388	0.939
2483.000	450.766	-7.404	0.939
2484.000	450.864	-7.420	0.938
2485.000	451.115	-7.435	0.938
2486.000	451.199	-7.448	0.938
2487.000	451.445	-7.464	0.938
2488.000	451.563	-7.478	0.937
2489.000	451.755	-7.492	0.937
2490.000	451.884	-7.507	0.937
2491.000	452.055	-7.522	0.936
2492.000	452.262	-7.537	0.936
2493.000	452.412	-7.552	0.936
2494.000	452.574	-7.568	0.935
2495.000	452.678	-7.585	0.935
2496.000	452.941	-7.601	0.935
2497.000	453.039	-7.616	0.934
2498.000	453.250	-7.634	0.934
2499.000	453.372	-7.651	0.934
2500.000	453.624	-7.668	0.934
2501.000	453.736	-7.684	0.934
2502.000	453.880	-7.702	0.933
2503.000	454.053	-7.718	0.933
2504.000	454.253	-7.734	0.933
2505.000	454.455	-7.748	0.933
2506.000	454.538	-7.762	0.932
2507.000	454.788	-7.777	0.932
2508.000	454.874	-7.790	0.932
2509.000	455.132	-7.802	0.932
2510.000	455.194	-7.814	0.931
2511.000	455.461	-7.826	0.931
2512.000	455.585	-7.836	0.931
2513.000	455.827	-7.848	0.931
2514.000	455.901	-7.858	0.930
2515.000	456.092	-7.870	0.930
2516.000	456.262	-7.881	0.930
2517.000	456.442	-7.892	0.930
2518.000	456.584	-7.902	0.929
2519.000	456.728	-7.914	0.929
2520.000	457.001	-7.926	0.929
2521.000	457.082	-7.938	0.928
2522.000	457.288	-7.949	0.928
2523.000	457.372	-7.962	0.928
2524.000	457.649	-7.975	0.928
2525.000	457.759	-7.986	0.927
2526.000	457.954	-7.998	0.927
2527.000	458.095	-8.010	0.927
2528.000	458.287	-8.023	0.927
2529.000	458.456	-8.034	0.926
2530.000	458.561	-8.045	0.926
2531.000	458.762	-8.056	0.926
2532.000	458.910	-8.067	0.925
2533.000	459.157	-8.078	0.925
2534.000	459.223	-8.089	0.925
2535.000	459.446	-8.100	0.924
2536.000	459.551	-8.111	0.924
2537.000	459.802	-8.124	0.924
2538.000	459.903	-8.135	0.924
2539.000	460.101	-8.148	0.923
2540.000	460.262	-8.159	0.923
2541.000	460.455	-8.172	0.923
2542.000	460.587	-8.182	0.923
2543.000	460.705	-8.195	0.922
2544.000	460.941	-8.206	0.922
2545.000	461.068	-8.218	0.922
2546.000	461.298	-8.227	0.922
2547.000	461.368	-8.238	0.921
2548.000	461.663	-8.249	0.921
2549.000	461.755	-8.259	0.921
2550.000	461.968	-8.268	0.921
2551.000	462.041	-8.278	0.920
2552.000	462.281	-8.289	0.920
2553.000	462.458	-8.299	0.920
2554.000	462.612	-8.309	0.920
2555.000	462.781	-8.317	0.919
2556.000	462.906	-8.328	0.919
2557.000	463.123	-8.337	0.919
2558.000	463.220	-8.344	0.919
2559.000	463.464	-8.352	0.918
2560.000	463.578	-8.361	0.918
2561.000	463.855	-8.367	0.918
2562.000	463.954	-8.373	0.918
2563.000	464.126	-8.381	0.917
2564.000	464.260	-8.388	0.917
2565.000	464.486	-8.395	0.917
2566.000	464.637	-8.401	0.917
2567.000	464.779	-8.408	0.916
2568.000	464.996	-8.415	0.916
2569.000	465.116	-8.425	0.916
2570.000	465.348	-8.432	0.916
2571.000	465.399	-8.440	0.916
2572.000	465.679	-8.448	0.915
2573.000	465.805	-8.456	0.915
2574.000	466.066	-8.463	0.915
2575.000	466.141	-8.471	0.915
2576.000	466.353	-8.479	0.914
2577.000	466.484	-8.486	0.914
2578.000	466.691	-8.493	0.914
2579.000	466.824	-8.500	0.914
2580.000	466.982	-8.508	0.913
2581.000	467.190	-8.517	0.913
2582.000	467.346	-8.527	0.913
2583.000	467.490	-8.535	0.912
2584.000	467.594	-8.546	0.912
2585.000	467.878	-8.557	0.912
2586.000	467.978	-8.568	0.912
2587.000	468.184	-8.579	0.911
2588.000	468.282	-8.591	0.911
2589.000	468.539	-8.603	0.911
2590.000	468.656	-8.615	0.911
2591.000	468.794	-8.627	0.910
2592.000	468.956	-8.639	0.910
2593.000	469.136	-8.652	0.910
2594.000	469.353	-8.664	0.910
2595.000	469.425	-8.678	0.910
2596.000	469.677	-8.690	0.909
2597.000	469.757	-8.703	0.909
2598.000	470.025	-8.716	0.909
2599.000	470.076	-8.728	0.909
2600.000	470.298	-8.740	0.908
2601.000	470.432	-8.753	0.908
2602.000	470.655	-8.764	0.908
2603.000	470.773	-8.775	0.908
2604.000	470.914	-8.787	0.908
2605.000	471.093	-8.798	0.908
2606.000	471.261	-8.809	0.907
2607.000	471.441	-8.819	0.907
2608.000	471.539	-8.830	0.907
2609.000	471.821	-8.838	0.906
2610.000	471.930	-8.850	0.906
2611.000	472.150	-8.857	0.906
2612.000	472.210	-8.866	0.906
2613.000	472.457	-8.875	0.905
2614.000	472.584	-8.884	0.905
2615.000	472.800	-8.892	0.905
2616.000	472.912	-8.899	0.905
2617.000	473.109	-8.908	0.904
2618.000	473.273	-8.915	0.904
2619.000	473.408	-8.922	0.904
2620.000	473.601	-8.928	0.904
2621.000	473.743	-8.935	0.904
2622.000	474.009	-8.941	0.903
2623.000	474.102	-8.947	0.903
2624.000	474.301	-8.953	0.903
2625.000	474.393	-8.958	0.903
2626.000	474.651	-8.964	0.903
2627.000	474.769	-8.968	0.902
2628.000	474.939	-8.974	0.902
2629.000	475.100	-8.979	0.902
2630.000	475.322	-8.985	0.901
2631.000	475.462	-8.989	0.901
2632.000	475.567	-8.995	0.901
2633.000	475.792	-9.000	0.900
2634.000	475.927	-9.006	0.900
2635.000	476.192	-9.010	0.900
2636.000	476.243	-9.016	0.900
2637.000	476.524	-9.023	0.899
2638.000	476.609	-9.029	0.899
2639.000	476.825	-9.035	0.899
2640.000	476.914	-9.040	0.899
2641.000	477.137	-9.049	0.898
2642.000	477.299	-9.055	0.898
2643.000	477.474	-9.061	0.898
2644.000	477.623	-9.065	0.898
2645.000	477.751	-9.073	0.898
2646.000	477.988	-9.078	0.898
2647.000	478.112	-9.084	0.897
2648.000	478.320	-9.089	0.897
2649.000	478.413	-9.094	0.897
2650.000	478.693	-9.100	0.897
2651.000	478.813	-9.105	0.896
2652.000	478.980	-9.111	0.896
2653.000	479.098	-9.117	0.896
2654.000	479.303	-9.124	0.896
2655.000	479.482	-9.130	0.896
2656.000	479.612	-9.137	0.895
2657.000	479.791	-9.143	0.895
2658.000	479.973	-9.152	0.895
2659.000	480.192	-9.158	0.894
2660.000	480.243	-9.165	0.894
2661.000	480.489	-9.172	0.894
2662.000	480.609	-9.180	0.894
2663.000	480.863	-9.189	0.893
2664.000	480.936	-9.195	0.893
2665.000	481.144	-9.206	0.893
2666.000	481.262	-9.215	0.893
2667.000	481.462	-9.227	0.892
2668.000	481.607	-9.237	0.892
2669.000	481.750	-9.250	0.892
2670.000	481.962	-9.263	0.892
2671.000	482.131	-9.276	0.892
2672.000	482.319	-9.286	0.891
2673.000	482.366	-9.297	0.891
2674.000	482.636	-9.309	0.891
2675.000	482.747	-9.318	0.890
2676.000	482.975	-9.327	0.890
2677.000	483.055	-9.337	0.890
2678.000	483.327	-9.348	0.889
2679.000	483.432	-9.358	0.889
2680.000	483.587	-9.369	0.889
2681.000	483.718	-9.379	0.889
2682.000	483.904	-9.390	0.889
2683.000	484.116	-9.401	0.888
2684.000	484.244	-9.411	0.888
2685.000	484.455	-9.422	0.888
2686.000	484.537	-9.433	0.888
2687.000	484.789	-9.444	0.887
2688.000	484.872	-9.455	0.887
2689.000	485.083	-9.467	0.887
2690.000	485.205	-9.478	0.886
2691.000	485.445	-9.491	0.886
2692.000	485.575	-9.502	0.886
2693.000	485.710	-9.514	0.886
2694.000	485.873	-9.527	0.886
2695.000	486.061	-9.541	0.885
2696.000	486.280	-9.552	0.885
2697.000	486.379	-9.566	0.885
2698.000	486.605	-9.579	0.885
2699.000	486.721	-9.592	0.885
2700.000	486.955	-9.604	0.884
2701.000	487.013	-9.618	0.884
2702.000	487.263	-9.633	0.884
2703.000	487.396	-9.647	0.883
2704.000	487.622	-9.661	0.883
2705.000	487.701	-9.676	0.883
2706.000	487.923	-9.690	0.883
2707.000	488.089	-9.702	0.882
2708.000	488.262	-9.716	0.882
2709.000	488.429	-9.728	0.882
2710.000	488.556	-9.741	0.882
2711.000	488.811	-9.752	0.881
2712.000	488.924	-9.764	0.881
2713.000	489.151	-9.775	0.881
2714.000	489.218	-9.785	0.881
2715.000	489.478	-9.797	0.880
2716.000	489.598	-9.806	0.880
2717.000	489.789	-9.817	0.880
2718.000	489.925	-9.828	0.880
2719.000	490.169	-9.838	0.879
2720.000	490.343	-9.848	0.879
2721.000	490.459	-9.858	0.879
2722.000	490.641	-9.867	0.879
2723.000	490.801	-9.878	0.879
2724.000	491.057	-9.886	0.879
2725.000	491.116	-9.893	0.878
2726.000	491.378	-9.902	0.878
2727.000	491.457	-9.910	0.878
2728.000	491.709	-9.918	0.878
2729.000	491.785	-9.924	0.877
2730.000	491.998	-9.932	0.877
2731.000	492.149	-9.939	0.877
2732.000	492.371	-9.947	0.876
2733.000	492.553	-9.954	0.876
2734.000	492.635	-9.963	0.876
2735.000	492.856	-9.972	0.876
2736.000	492.970	-9.982	0.875
2737.000	493.221	-9.991	0.875
2738.000	493.269	-10.001	0.875
2739.000	493.560	-10.013	0.875
2740.000	493.672	-10.025	0.874
2741.000	493.884	-10.037	0.874
2742.000	493.952	-10.050	0.874
2743.000	494.164	-10.063	0.874
2744.000	494.350	-10.075	0.874
2745.000	494.523	-10.087	0.873
2746.000	494.665	-10.100	0.873
2747.000	494.841	-10.113	0.873
2748.000	495.032	-10.125	0.873
2749.000	495.124	-10.137	0.873
2750.000	495.340	-10.150	0.872
2751.000	495.449	-10.163	0.872
2752.000	495.722	-10.174	0.872
2753.000	495.814	-10.184	0.871
2754.000	496.017	-10.197	0.871
2755.000	496.138	-10.209	0.871
2756.000	496.352	-10.221	0.871
2757.000	496.510	-10.232	0.870
2758.000	496.649	-10.244	0.870
2759.000	496.848	-10.257	0.870
2760.000	496.998	-10.272	0.870
2761.000	497.223	-10.283	0.869
2762.000	497.265	-10.296	0.869
2763.000	497.522	-10.309	0.869
2764.000	497.626	-10.322	0.869
2765.000	497.889	-10.334	0.869
2766.000	497.947	-10.347	0.868
2767.000	498.177	-10.360	0.868
2768.000	498.349	-10.373	0.868
2769.000	498.546	-10.385	0.868
2770.000	498.651	-10.398	0.868
2771.000	498.826	-10.412	0.867
2772.000	499.039	-10.424	0.867
2773.000	499.187	-10.439	0.866
2774.000	499.380	-10.451	0.866
2775.000	499.463	-10.467	0.866
2776.000	499.729	-10.481	0.866
2777.000	499.819	-10.494	0.865
2778.000	500.039	-10.507	0.865
2779.000	500.132	-10.519	0.865
2780.000	500.393	-10.534	0.865
2781.000	500.550	-10.545	0.865
2782.000	500.715	-10.559	0.864
2783.000	500.850	-10.571	0.864
2784.000	501.039	-10.585	0.864
2785.000	501.229	-10.598	0.864
2786.000	501.345	-10.611	0.864
2787.000	501.560	-10.623	0.864
2788.000	501.688	-10.637	0.863
2789.000	501.932	-10.650	0.863
2790.000	501.982	-10.663	0.863
2791.000	502.208	-10.675	0.863
2792.000	502.335	-10.688	0.863
2793.000	502.578	-10.703	0.862
2794.000	502.692	-10.716	0.862
2795.000	502.893	-10.731	0.862
2796.000	503.044	-10.745	0.861
2797.000	503.205	-10.760	0.861
2798.000	503.365	-10.773	0.861
2799.000	503.492	-10.788	0.860
2800.000	503.724	-10.802	0.860
2801.000	503.835	-10.816	0.860
2802.000	504.084	-10.829	0.860
2803.000	504.113	-10.843	0.860
2804.000	504.366	-10.856	0.859
2805.000	504.490	-10.870	0.859
2806.000	504.719	-10.882	0.859
2807.000	504.825	-10.895	0.859
2808.000	505.045	-10.909	0.858
2809.000	505.214	-10.921	0.858
2810.000	505.356	-10.933	0.858
2811.000	505.490	-10.945	0.858
2812.000	505.639	-10.958	0.858
2813.000	505.884	-10.969	0.857
2814.000	505.986	-10.980	0.857
2815.000	506.202	-10.992	0.857
2816.000	506.312	-11.003	0.857
2817.000	506.560	-11.016	0.857
2818.000	506.663	-11.027	0.856
2819.000	506.857	-11.039	0.856
2820.000	507.006	-11.052	0.856
2821.000	507.223	-11.065	0.856
2822.000	507.384	-11.077	0.855
2823.000	507.541	-11.090	0.855
2824.000	507.695	-11.103	0.855
2825.000	507.847	-11.117	0.855
2826.000	508.075	-11.129	0.854
2827.000	508.126	-11.142	0.854
2828.000	508.394	-11.155	0.854
2829.000	508.500	-11.167	0.854
2830.000	508.770	-11.179	0.854
2831.000	508.808	-11.190	0.853
2832.000	509.039	-11.202	0.853
2833.000	509.190	-11.211	0.853
2834.000	509.390	-11.223	0.853
2835.000	509.517	-11.234	0.852
2836.000	509.695	-11.247	0.852
2837.000	509.882	-11.259	0.852
2838.000	510.011	-11.272	0.852
2839.000	510.199	-11.284	0.852
2840.000	510.291	-11.298	0.851
2841.000	510.547	-11.311	0.851
2842.000	510.657	-11.324	0.851
2843.000	510.905	-11.337	0.851
2844.000	510.979	-11.350	0.850
2845.000	511.214	-11.364	0.850
2846.000	511.340	-11.376	0.850
2847.000	511.515	-11.389	0.850
2848.000	511.659	-11.402	0.850
2849.000	511.853	-11.416	0.849
2850.000	512.075	-11.427	0.849
2851.000	512.155	-11.439	0.849
2852.000	512.358	-11.450	0.848
2853.000	512.480	-11.461	0.848
2854.000	512.749	-11.471	0.848
2855.000	512.818	-11.479	0.848
2856.000	513.065	-11.490	0.847
2857.000	513.211	-11.499	0.847
2858.000	513.418	-11.508	0.847
2859.000	513.518	-11.515	0.847
2860.000	513.700	-11.524	0.847
2861.000	513.883	-11.533	0.846
2862.000	514.059	-11.542	0.846
2863.000	514.242	-11.549	0.846
2864.000	514.356	-11.557	0.846
2865.000	514.578	-11.565	0.845
2866.000	514.688	-11.573	0.845
2867.000	514.926	-11.579	0.845
2868.000	515.022	-11.587	0.845
2869.000	515.292	-11.595	0.844
2870.000	515.418	-11.603	0.844
2871.000	515.650	-11.611	0.844
2872.000	515.721	-11.618	0.844
2873.000	515.915	-11.628	0.844
2874.000	516.092	-11.637	0.844
2875.000	516.260	-11.646	0.843
2876.000	516.437	-11.656	0.843
2877.000	516.563	-11.666	0.843
2878.000	516.816	-11.676	0.843
2879.000	516.907	-11.686	0.842
2880.000	517.131	-11.695	0.842
2881.000	517.243	-11.704	0.842
2882.000	517.510	-11.714	0.842
2883.000	517.627	-11.721	0.842
2884.000	517.804	-11.729	0.841
2885.000	517.970	-11.737	0.841
2886.000	518.145	-11.747	0.841
2887.000	518.310	-11.755	0.841
2888.000	518.426	-11.764	0.841
2889.000	518.637	-11.774	0.840
2890.000	518.771	-11.785	0.840
2891.000	519.011	-11.794	0.840
2892.000	519.065	-11.805	0.840
2893.000	519.300	-11.818	0.839
2894.000	519.406	-11.829	0.839
2895.000	519.655	-11.840	0.839
2896.000	519.722	-11.852	0.839
2897.000	519.926	-11.864	0.838
2898.000	520.097	-11.873	0.838
2899.000	520.264	-11.884	0.838
2900.000	520.386	-11.893	0.837
2901.000	520.523	-11.903	0.837
2902.000	520.748	-11.911	0.837
2903.000	520.869	-11.919	0.837
2904.000	521.080	-11.927	0.837
2905.000	521.185	-11.934	0.836
2906.000	521.460	-11.942	0.836
2907.000	521.538	-11.949	0.836
2908.000	521.748	-11.957	0.836
2909.000	521.838	-11.964	0.835
2910.000	522.080	-11.973	0.835
2911.000	522.235	-11.980	0.835
2912.000	522.397	-11.986	0.835
2913.000	522.529	-11.993	0.835
2914.000	522.686	-12.000	0.834
2915.000	522.907	-12.005	0.834
2916.000	522.996	-12.010	0.834
2917.000	523.230	-12.016	0.834
2918.000	523.359	-12.021	0.833
2919.000	523.632	-12.026	0.833
2920.000	523.692	-12.032	0.833
2921.000	523.875	-12.038	0.832
2922.000	524.012	-12.044	0.832
2923.000	524.239	-12.052	0.832
2924.000	524.388	-12.058	0.832
2925.000	524.517	-12.066	0.831
2926.000	524.748	-12.072	0.831
2927.000	524.879	-12.080	0.831
2928.000	525.077	-12.085	0.831
2929.000	525.163	-12.091	0.831
2930.000	525.451	-12.099	0.830
2931.000	525.558	-12.104	0.830
2932.000	525.794	-12.110	0.830
2933.000	525.888	-12.116	0.830
2934.000	526.119	-12.122	0.829
2935.000	526.248	-12.127	0.829
2936.000	526.433	-12.132	0.829
2937.000	526.569	-12.138	0.829
2938.000	526.753	-12.144	0.829
2939.000	526.945	-12.149	0.828
2940.000	527.109	-12.154	0.828
2941.000	527.281	-12.160	0.828
2942.000	527.397	-12.166	0.828
2943.000	527.668	-12.171	0.828
2944.000	527.775	-12.175	0.827
2945.000	527.987	-12.180	0.827
2946.000	528.100	-12.185	0.827
2947.000	528.373	-12.190	0.826
2948.000	528.463	-12.193	0.826
2949.000	528.627	-12.198	0.826
2950.000	528.802	-12.202	0.826
2951.000	528.975	-12.206	0.826
2952.000	529.187	-12.209	0.826
2953.000	529.282	-12.213	0.825
2954.000	529.513	-12.218	0.825
2955.000	529.625	-12.222	0.825
2956.000	529.874	-12.227	0.825
2957.000	529.937	-12.232	0.824
2958.000	530.187	-12.237	0.824
2959.000	530.317	-12.243	0.824
2960.000	530.578	-12.250	0.824
2961.000	530.639	-12.255	0.824
2962.000	530.829	-12.262	0.823
2963.000	530.991	-12.268	0.823
2964.000	531.178	-12.273	0.823
2965.000	531.337	-12.278	0.823
2966.000	531.456	-12.284	0.823
2967.000	531.753	-12.288	0.822
2968.000	531.832	-12.292	0.822
2969.000	532.045	-12.297	0.822
2970.000	532.120	-12.302	0.822
2971.000	532.392	-12.306	0.821
2972.000	532.516	-12.310	0.821
2973.000	532.712	-12.314	0.821
2974.000	532.859	-12.318	0.821
2975.000	533.049	-12.322	0.821
2976.000	533.197	-12.324	0.821
2977.000	533.339	-12.327	0.820
2978.000	533.528	-12.331	0.820
2979.000	533.690	-12.335	0.820
2980.000	533.936	-12.337	0.820
2981.000	534.025	-12.340	0.820
2982.000	534.234	-12.343	0.820
2983.000	534.347	-12.347	0.819
2984.000	534.592	-12.350	0.819
2985.000	534.691	-12.352	0.819
2986.000	534.891	-12.357	0.819
2987.000	535.051	-12.361	0.818
2988.000	535.259	-12.365	0.818
2989.000	535.376	-12.368	0.818
2990.000	535.487	-12.373	0.817
2991.000	535.727	-12.378	0.817
2992.000	535.846	-12.383	0.817
2993.000	536.094	-12.385	0.817
2994.000	536.152	-12.390	0.817
2995.000	536.438	-12.395	0.816
2996.000	536.507	-12.399	0.816
2997.000	536.727	-12.404	0.816
2998.000	536.796	-12.408	0.816
2999.000	537.040	-12.414	0.815
3000.000	537.199	-12.420	0.815
3001.000	537.351	-12.426	0.815
3002.000	537.506	-12.431	0.815
3003.000	537.635	-12.438	0.814
3004.000	537.870	-12.443	0.814
3005.000	537.970	-12.450	0.814
3006.000	538.191	-12.456	0.814
3007.000	538.291	-12.461	0.814
3008.000	538.572	-12.467	0.814
3009.000	538.665	-12.473	0.813
3010.000	538.817	-12.479	0.813
3011.000	538.949	-12.484	0.813
3012.000	539.166	-12.490	0.813
3013.000	539.314	-12.495	0.813
3014.000	539.453	-12.501	0.812
3015.000	539.667	-12.505	0.812
3016.000	539.820	-12.512	0.812
3017.000	540.025	-12.516	0.811
3018.000	540.073	-12.521	0.811
3019.000	540.349	-12.526	0.811
3020.000	540.450	-12.532	0.811
3021.000	540.713	-12.536	0.811
3022.000	540.777	-12.541	0.811
3023.000	540.993	-12.547	0.811
3024.000	541.129	-12.552	0.810
3025.000	541.331	-12.557	0.810
3026.000	541.455	-12.562	0.810
3027.000	541.636	-12.569	0.810
3028.000	541.853	-12.573	0.809
3029.000	542.019	-12.580	0.809
3030.000	542.179	-12.584	0.809
3031.000	542.263	-12.591	0.809
3032.000	542.535	-12.597	0.809
3033.000	542.649	-12.602	0.808
3034.000	542.858	-12.608	0.808
3035.000	542.957	-12.613	0.808
3036.000	543.219	-12.619	0.808
3037.000	543.337	-12.625	0.807
3038.000	543.483	-12.630	0.807
3039.000	543.647	-12.635	0.807
3040.000	543.842	-12.640	0.806
3041.000	544.050	-12.644	0.806
3042.000	544.155	-12.648	0.806
3043.000	544.395	-12.653	0.806
3044.000	544.480	-12.657	0.805
3045.000	544.733	-12.661	0.805
3046.000	544.804	-12.664	0.805
3047.000	545.040	-12.669	0.805
3048.000	545.168	-12.673	0.805
3049.000	545.406	-12.679	0.805
3050.000	545.524	-12.683	0.805
3051.000	545.683	-12.688	0.804
3052.000	545.872	-12.693	0.804
3053.000	546.047	-12.698	0.804
3054.000	546.250	-12.701	0.804
3055.000	546.357	-12.707	0.804
3056.000	546.627	-12.713	0.803
3057.000	546.743	-12.718	0.803
3058.000	546.963	-12.722	0.803
3059.000	547.028	-12.727	0.803
3060.000	547.296	-12.732	0.803
3061.000	547.426	-12.737	0.802
3062.000	547.639	-12.741	0.802
3063.000	547.760	-12.746	0.802
3064.000	547.981	-12.751	0.802
3065.000	548.161	-12.754	0.802
3066.000	548.300	-12.760	0.801
3067.000	548.486	-12.763	0.801
3068.000	548.636	-12.769	0.801
3069.000	548.879	-12.773	0.801
3070.000	548.991	-12.777	0.801
3071.000	549.216	-12.783	0.800
3072.000	549.298	-12.789	0.800
3073.000	549.547	-12.795	0.800
3074.000	549.665	-12.800	0.800
3075.000	549.856	-12.806	0.800
3076.000	550.011	-12.812	0.799
3077.000	550.225	-12.820	0.799
3078.000	550.403	-12.825	0.799
3079.000	550.500	-12.833	0.799
3080.000	550.718	-12.839	0.799
3081.000	550.857	-12.846	0.798
3082.000	551.104	-12.851	0.798
3083.000	551.157	-12.856	0.798
3084.000	551.435	-12.863	0.798
3085.000	551.525	-12.868	0.798
3086.000	551.760	-12.873	0.797
3087.000	551.821	-12.879	0.797
3088.000	552.056	-12.885	0.797
3089.000	552.208	-12.891	0.797
3090.000	552.405	-12.898	0.796
3091.000	552.564	-12.904	0.796
3092.000	552.677	-12.911	0.796
3093.000	552.896	-12.918	0.796
3094.000	553.011	-12.926	0.796
3095.000	553.223	-12.931	0.796
3096.000	553.315	-12.937	0.795
3097.000	553.579	-12.944	0.795
3098.000	553.702	-12.950	0.795
3099.000	553.866	-12.956	0.795
3100.000	553.966	-12.962	0.794
3101.000	554.201	-12.969	0.794
3102.000	554.370	-12.974	0.794
3103.000	554.515	-12.980	0.794
3104.000	554.683	-12.987	0.794
3105.000	554.837	-12.995	0.794
3106.000	555.052	-13.000	0.793
3107.000	555.113	-13.006	0.793
3108.000	555.357	-13.013	0.793
3109.000	555.465	-13.019	0.793
3110.000	555.727	-13.026	0.792
3111.000	555.789	-13.031	0.792
3112.000	556.011	-13.039	0.792
3113.000	556.135	-13.046	0.792
3114.000	556.350	-13.054	0.792
3115.000	556.485	-13.060	0.791
3116.000	556.643	-13.069	0.791
3117.000	556.850	-13.076	0.791
3118.000	556.989	-13.083	0.791
3119.000	557.191	-13.089	0.791
3120.000	557.244	-13.096	0.790
3121.000	557.503	-13.103	0.790
3122.000	557.590	-13.109	0.790
3123.000	557.840	-13.116	0.790
3124.000	557.910	-13.122	0.790
3125.000	558.145	-13.130	0.789
3126.000	558.318	-13.135	0.789
3127.000	558.471	-13.141	0.789
3128.000	558.604	-13.148	0.789
3129.000	558.767	-13.155	0.788
3130.000	558.978	-13.162	0.788
3131.000	559.093	-13.169	0.788
3132.000	559.289	-13.176	0.788
3133.000	559.422	-13.184	0.788
3134.000	559.652	-13.191	0.787
3135.000	559.735	-13.197	0.787
3136.000	559.942	-13.205	0.786
3137.000	560.063	-13.211	0.786
3138.000	560.291	-13.219	0.786
3139.000	560.446	-13.223	0.786
3140.000	560.597	-13.231	0.785
3141.000	560.746	-13.237	0.785
3142.000	560.907	-13.244	0.785
3143.000	561.109	-13.249	0.785
3144.000	561.192	-13.255	0.785
3145.000	561.448	-13.263	0.785
3146.000	561.569	-13.270	0.784
3147.000	561.802	-13.277	0.784
3148.000	561.829	-13.283	0.784
3149.000	562.071	-13.291	0.784
3150.000	562.205	-13.297	0.783
3151.000	562.444	-13.304	0.783
3152.000	562.544	-13.310	0.783
3153.000	562.749	-13.318	0.783
3154.000	562.915	-13.324	0.783
3155.000	563.053	-13.331	0.783
3156.000	563.220	-13.337	0.783
3157.000	563.349	-13.345	0.782
3158.000	563.609	-13.351	0.782
3159.000	563.711	-13.356	0.782
3160.000	563.939	-13.362	0.781
3161.000	564.015	-13.369	0.781
3162.000	564.255	-13.375	0.781
3163.000	564.384	-13.380	0.781
3164.000	564.578	-13.386	0.780
3165.000	564.723	-13.391	0.780
3166.000	564.926	-13.398	0.780
3167.000	565.125	-13.402	0.780
3168.000	565.224	-13.409	0.780
3169.000	565.413	-13.415	0.779
3170.000	565.545	-13.423	0.779
3171.000	565.805	-13.428	0.779
3172.000	565.871	-13.435	0.779
3173.000	566.117	-13.442	0.779
3174.000	566.241	-13.449	0.778
3175.000	566.479	-13.456	0.778
3176.000	566.566	-13.462	0.778
3177.000	566.763	-13.470	0.778
3178.000	566.945	-13.477	0.777
3179.000	567.129	-13.485	0.777
3180.000	567.292	-13.492	0.777
3181.000	567.438	-13.501	0.777
3182.000	567.639	-13.508	0.777
3183.000	567.764	-13.515	0.777
3184.000	567.981	-13.522	0.776
3185.000	568.058	-13.529	0.776
3186.000	568.336	-13.536	0.776
3187.000	568.445	-13.544	0.775
3188.000	568.685	-13.550	0.775
3189.000	568.762	-13.557	0.775
3190.000	568.979	-13.565	0.775
3191.000	569.132	-13.572	0.775
3192.000	569.302	-13.578	0.775
3193.000	569.462	-13.585	0.774
3194.000	569.611	-13.592	0.774
3195.000	569.863	-13.598	0.774
3196.000	569.923	-13.605	0.774
3197.000	570.126	-13.611	0.773
3198.000	570.237	-13.618	0.773
3199.000	570.508	-13.626	0.773
3200.000	570.611	-13.633	0.773
3201.000	570.822	-13.639	0.773
3202.000	570.940	-13.647	0.773
3203.000	571.140	-13.655	0.772
3204.000	571.279	-13.660	0.772
3205.000	571.425	-13.667	0.772
3206.000	571.638	-13.673	0.772
3207.000	571.786	-13.678	0.772
3208.000	572.016	-13.682	0.772
3209.000	572.062	-13.687	0.771
3210.000	572.310	-13.691	0.771
3211.000	572.398	-13.695	0.771
3212.000	572.664	-13.701	0.771
3213.000	572.735	-13.707	0.770
3214.000	572.991	-13.714	0.770
3215.000	573.136	-13.721	0.770
3216.000	573.316	-13.730	0.770
3217.000	573.421	-13.737	0.770
3218.000	573.590	-13.747	0.769
3219.000	573.787	-13.755	0.769
3220.000	573.928	-13.765	0.769
3221.000	574.125	-13.772	0.769
3222.000	574.228	-13.782	0.769
3223.000	574.482	-13.790	0.769
3224.000	574.582	-13.799	0.769
3225.000	574.794	-13.807	0.768
3226.000	574.899	-13.815	0.768
3227.000	575.153	-13.824	0.768
3228.000	575.295	-13.831	0.768
3229.000	575.480	-13.839	0.767
3230.000	575.620	-13.847	0.767
3231.000	575.771	-13.856	0.767
3232.000	575.979	-13.863	0.767
3233.000	576.091	-13.870	0.767
3234.000	576.323	-13.877	0.767
3235.000	576.435	-13.884	0.766
3236.000	576.707	-13.889	0.766
3237.000	576.771	-13.894	0.766
3238.000	576.992	-13.900	0.765
3239.000	577.120	-13.906	0.765
3240.000	577.363	-13.914	0.765
3241.000	577.479	-13.918	0.765
3242.000	577.652	-13.927	0.765
3243.000	577.842	-13.934	0.764
3244.000	578.007	-13.943	0.764
3245.000	578.175	-13.951	0.764
3246.000	578.272	-13.960	0.764
3247.000	578.535	-13.968	0.763
3248.000	578.641	-13.978	0.763
3249.000	578.895	-13.985	0.763
3250.000	578.983	-13.993	0.763
3251.000	579.207	-14.003	0.763
3252.000	579.341	-14.011	0.762
3253.000	579.539	-14.020	0.762
3254.000	579.656	-14.027	0.762
3255.000	579.856	-14.035	0.762
3256.000	580.052	-14.043	0.762
3257.000	580.213	-14.049	0.761
3258.000	580.354	-14.055	0.761
3259.000	580.477	-14.062	0.761
3260.000	580.719	-14.069	0.761
3261.000	580.820	-14.074	0.761
3262.000	581.055	-14.080	0.760
3263.000	581.167	-14.086	0.760
3264.000	581.428	-14.094	0.760
3265.000	581.507	-14.099	0.760
3266.000	581.688	-14.107	0.760
3267.000	581.836	-14.113	0.759
3268.000	582.039	-14.120	0.759
3269.000	582.218	-14.127	0.759
3270.000	582.341	-14.134	0.759
3271.000	582.540	-14.141	0.759
3272.000	582.653	-14.149	0.758
3273.000	582.890	-14.156	0.758
3274.000	582.960	-14.162	0.758
3275.000	583.224	-14.170	0.758
3276.000	583.349	-14.177	0.758
3277.000	583.599	-14.183	0.757
3278.000	583.670	-14.190	0.757
3279.000	583.857	-14.197	0.757
3280.000	584.026	-14.202	0.757
3281.000	584.220	-14.207	0.757
3282.000	584.367	-14.210	0.757
3283.000	584.522	-14.216	0.757
3284.000	584.782	-14.219	0.756
3285.000	584.860	-14.225	0.756
3286.000	585.071	-14.228	0.756
3287.000	585.162	-14.234	0.756
3288.000	585.454	-14.240	0.756
3289.000	585.573	-14.247	0.755
3290.000	585.772	-14.254	0.755
3291.000	585.912	-14.261	0.755
3292.000	586.106	-14.270	0.755
3293.000	586.260	-14.277	0.755
3294.000	586.398	-14.285	0.754
3295.000	586.590	-14.294	0.754
3296.000	586.731	-14.304	0.754
3297.000	586.988	-14.312	0.754
3298.000	587.072	-14.321	0.754
3299.000	587.300	-14.330	0.753
3300.000	587.404	-14.340	0.753
3301.000	587.662	-14.349	0.753
3302.000	587.745	-14.358	0.753
3303.000	587.961	-14.368	0.752
3304.000	588.122	-14.377	0.752
3305.000	588.332	-14.386	0.752
3306.000	588.456	-14.394	0.751
3307.000	588.585	-14.405	0.751
3308.000	588.800	-14.412	0.751
3309.000	588.954	-14.423	0.751
3310.000	589.147	-14.429	0.751
3311.000	589.245	-14.438	0.750
3312.000	589.535	-14.446	0.750
3313.000	589.627	-14.454	0.750
3314.000	589.836	-14.462	0.750
3315.000	589.927	-14.470	0.750
3316.000	590.175	-14.480	0.749
3317.000	590.319	-14.488	0.749
3318.000	590.498	-14.497	0.749
3319.000	590.666	-14.504	0.749
3320.000	590.804	-14.514	0.749
3321.000	591.005	-14.523	0.748
3322.000	591.125	-14.530	0.748
3323.000	591.353	-14.538	0.748
3324.000	591.474	-14.546	0.748
3325.000	591.738	-14.554	0.748
3326.000	591.834	-14.560	0.748
3327.000	592.023	-14.568	0.748
3328.000	592.146	-14.574	0.747
3329.000	592.377	-14.582	0.747
3330.000	592.531	-14.587	0.747
3331.000	592.678	-14.593	0.747
3332.000	592.868	-14.599	0.746
3333.000	593.019	-14.607	0.746
3334.000	593.206	-14.612	0.746
3335.000	593.293	-14.618	0.746
3336.000	593.546	-14.623	0.746
3337.000	593.662	-14.630	0.745
3338.000	593.919	-14.634	0.745
3339.000	593.994	-14.640	0.745
3340.000	594.210	-14.646	0.745
3341.000	594.335	-14.652	0.745
3342.000	594.541	-14.657	0.745
3343.000	594.662	-14.662	0.745
3344.000	594.841	-14.670	0.744
3345.000	595.029	-14.676	0.744
3346.000	595.187	-14.682	0.744
3347.000	595.353	-14.687	0.744
3348.000	595.450	-14.694	0.743
3349.000	595.713	-14.700	0.743
3350.000	595.807	-14.705	0.743
3351.000	596.019	-14.711	0.743
3352.000	596.123	-14.717	0.743
3353.000	596.394	-14.724	0.742
3354.000	596.501	-14.730	0.742
3355.000	596.644	-14.735	0.742
3356.000	596.787	-14.740	0.742
3357.000	596.988	-14.746	0.741
3358.000	597.179	-14.750	0.741
3359.000	597.277	-14.756	0.741
3360.000	597.508	-14.761	0.741
3361.000	597.607	-14.768	0.741
3362.000	597.848	-14.774	0.740
3363.000	597.911	-14.780	0.740
3364.000	598.153	-14.787	0.740
3365.000	598.273	-14.794	0.740
3366.000	598.505	-14.801	0.740
3367.000	598.603	-14.806	0.739
3368.000	598.772	-14.815	0.739
3369.000	598.934	-14.821	0.739
3370.000	599.114	-14.829	0.739
3371.000	599.280	-14.836	0.738
3372.000	599.409	-14.844	0.738
3373.000	599.641	-14.852	0.738
3374.000	599.769	-14.860	0.738
3375.000	599.967	-14.866	0.738
3376.000	600.055	-14.872	0.737
3377.000	600.291	-14.879	0.737
3378.000	600.421	-14.884	0.737
3379.000	600.624	-14.888	0.737
3380.000	600.750	-14.892	0.737
3381.000	600.970	-14.896	0.736
3382.000	601.137	-14.898	0.736
3383.000	601.265	-14.902	0.736
3384.000	601.446	-14.904	0.736
3385.000	601.604	-14.909	0.736
3386.000	601.865	-14.911	0.736


